%OpenBCI Raw EEG Data
%Number of channels = 8
%Sample Rate = 250 Hz
%Board = OpenBCI_GUI$BoardCytonSerial
Sample Index, EXG Channel 0, EXG Channel 1, EXG Channel 2, EXG Channel 3, EXG Channel 4, EXG Channel 5, EXG Channel 6, EXG Channel 7, Accel Channel 0, Accel Channel 1, Accel Channel 2, Other, Other, Other, Other, Other, Other, Other, Analog Channel 0, Analog Channel 1, Analog Channel 2, Timestamp, Timestamp (Formatted)
254.0, 4563.5107421875, 15832.4326171875, 29424.974609375, 8586.6904296875, 7212.3935546875, 17868.677734375, 4112.5869140625, 0.0, 0.0, 0.0, 0.0, 192.0, 0.0, 0.0, 0.0, 0.0, 0.0, 0.0, 0.0, 0.0, 0.0, 1.5977656503582804E9, 2020-08-18 08:47:30.358
255.0, 4565.8798828125, 15833.1708984375, 29431.94921875, 8601.3759765625, 7218.6298828125, 17875.025390625, 4119.60498046875, 0.0, 0.0, 0.0, 0.0, 192.0, 0.0, 0.0, 0.0, 0.0, 0.0, 0.0, 0.0, 0.0, 0.0, 1.5977656503582847E9, 2020-08-18 08:47:30.358
0.0, 4564.40478515625, 15830.1083984375, 29430.96484375, 8610.71875, 7217.66845703125, 17881.505859375, 4122.66748046875, 0.0, 0.0, 0.0, 0.0, 192.0, 0.0, 0.0, 0.0, 0.0, 0.0, 0.0, 0.0, 0.0, 0.0, 1.5977656503582888E9, 2020-08-18 08:47:30.358
1.0, 4564.9638671875, 15827.0009765625, 29428.73046875, 8604.236328125, 7209.89013671875, 17876.947265625, 4118.59912109375, 0.0, 0.0, 0.0, 0.0, 192.0, 0.0, 0.0, 0.0, 0.0, 0.0, 0.0, 0.0, 0.0, 0.0, 1.5977656503582933E9, 2020-08-18 08:47:30.358
2.0, 4569.43408203125, 15828.3427734375, 29431.322265625, 8598.291015625, 7209.9794921875, 17872.69921875, 4118.86767578125, 0.0, 0.0, 0.0, 0.0, 192.0, 0.0, 0.0, 0.0, 0.0, 0.0, 0.0, 0.0, 0.0, 0.0, 1.5977656503582973E9, 2020-08-18 08:47:30.358
3.0, 4565.83544921875, 15827.91796875, 29438.54296875, 8607.90234375, 7215.50048828125, 17874.30859375, 4118.21923828125, 0.0, 0.0, 0.0, 0.0, 192.0, 0.0, 0.0, 0.0, 0.0, 0.0, 0.0, 0.0, 0.0, 0.0, 1.5977656503583016E9, 2020-08-18 08:47:30.358
4.0, 4570.529296875, 15834.9365234375, 29445.3828125, 8620.5537109375, 7227.5927734375, 17887.49609375, 4123.85205078125, 0.0, 0.12600000202655792, -0.05000000074505806, 0.9960000514984131, 192.0, 3.0, 240.0, 254.0, 112.0, 31.0, 32.0, 0.0, 0.0, 0.0, 1.5977656503583057E9, 2020-08-18 08:47:30.358
5.0, 4572.6748046875, 15834.66796875, 29442.587890625, 8610.3837890625, 7220.46240234375, 17882.802734375, 4122.80126953125, 0.0, 0.12600000202655792, -0.05000000074505806, 0.9960000514984131, 192.0, 0.0, 0.0, 0.0, 0.0, 0.0, 0.0, 0.0, 0.0, 0.0, 1.5977656503583095E9, 2020-08-18 08:47:30.358
6.0, 4560.78369140625, 15822.7099609375, 29424.283203125, 8599.6767578125, 7203.94482421875, 17865.994140625, 4112.29638671875, 0.0, 0.12600000202655792, -0.05000000074505806, 0.9960000514984131, 192.0, 0.0, 0.0, 0.0, 0.0, 0.0, 0.0, 0.0, 0.0, 0.0, 1.597765650358314E9, 2020-08-18 08:47:30.358
7.0, 4561.56640625, 15825.2578125, 29427.142578125, 8606.896484375, 7209.30908203125, 17871.873046875, 4117.9287109375, 0.0, 0.12600000202655792, -0.05000000074505806, 0.9960000514984131, 192.0, 0.0, 0.0, 0.0, 0.0, 0.0, 0.0, 0.0, 0.0, 0.0, 1.597765650358318E9, 2020-08-18 08:47:30.358
8.0, 4565.58935546875, 15832.41015625, 29443.169921875, 8614.451171875, 7218.361328125, 17881.908203125, 4122.86865234375, 0.0, 0.12600000202655792, -0.05000000074505806, 0.9960000514984131, 192.0, 0.0, 0.0, 0.0, 0.0, 0.0, 0.0, 0.0, 0.0, 0.0, 1.597765650358322E9, 2020-08-18 08:47:30.358
9.0, 4565.2763671875, 15830.599609375, 29435.681640625, 8600.66015625, 7214.27099609375, 17878.958984375, 4117.88427734375, 0.0, 0.12600000202655792, -0.05000000074505806, 0.9960000514984131, 192.0, 0.0, 0.0, 0.0, 0.0, 0.0, 0.0, 0.0, 0.0, 0.0, 1.5977656503583262E9, 2020-08-18 08:47:30.358
10.0, 4563.06396484375, 15824.05078125, 29425.6015625, 8587.16015625, 7203.36328125, 17867.134765625, 4113.25732421875, 0.0, 0.12600000202655792, -0.05000000074505806, 0.9960000514984131, 192.0, 0.0, 0.0, 0.0, 0.0, 0.0, 0.0, 0.0, 0.0, 0.0, 1.5977656503583305E9, 2020-08-18 08:47:30.358
11.0, 4565.74609375, 15827.0234375, 29432.73046875, 8612.931640625, 7210.31494140625, 17871.359375, 4118.15234375, 0.0, 0.12600000202655792, -0.05000000074505806, 0.9960000514984131, 192.0, 0.0, 0.0, 0.0, 0.0, 0.0, 0.0, 0.0, 0.0, 0.0, 1.5977656503583343E9, 2020-08-18 08:47:30.358
12.0, 4573.45751953125, 15835.830078125, 29449.361328125, 8634.27734375, 7225.89404296875, 17887.09375, 4128.00927734375, 0.0, 0.12600000202655792, -0.05000000074505806, 0.9960000514984131, 192.0, 0.0, 0.0, 0.0, 0.0, 0.0, 0.0, 0.0, 0.0, 0.0, 1.5977656503583384E9, 2020-08-18 08:47:30.358
13.0, 4573.6806640625, 15834.4443359375, 29444.599609375, 8608.3271484375, 7222.69775390625, 17885.59765625, 4125.7744140625, 0.0, 0.12600000202655792, -0.05000000074505806, 0.9960000514984131, 192.0, 0.0, 0.0, 0.0, 0.0, 0.0, 0.0, 0.0, 0.0, 0.0, 1.597765650358343E9, 2020-08-18 08:47:30.358
14.0, 4566.64013671875, 15827.8955078125, 29417.30859375, 8589.4169921875, 7210.359375, 17872.095703125, 4118.5771484375, 0.0, 0.12400000542402267, -0.046000003814697266, 0.9940000176429749, 192.0, 3.0, 224.0, 254.0, 144.0, 31.0, 16.0, 0.0, 0.0, 0.0, 1.5977656503583467E9, 2020-08-18 08:47:30.358
15.0, 4566.19287109375, 15824.8779296875, 29410.71484375, 8595.3857421875, 7210.73974609375, 17871.134765625, 4119.62744140625, 0.0, 0.12400000542402267, -0.046000003814697266, 0.9940000176429749, 192.0, 0.0, 0.0, 0.0, 0.0, 0.0, 0.0, 0.0, 0.0, 0.0, 1.5977656503583508E9, 2020-08-18 08:47:30.358
16.0, 4566.1484375, 15823.6484375, 29427.658203125, 8611.5234375, 7215.43359375, 17879.71875, 4123.06982421875, 0.0, 0.12400000542402267, -0.046000003814697266, 0.9940000176429749, 192.0, 0.0, 0.0, 0.0, 0.0, 0.0, 0.0, 0.0, 0.0, 0.0, 1.5977656503583553E9, 2020-08-18 08:47:30.358
17.0, 4563.57763671875, 15822.12890625, 29428.8203125, 8599.609375, 7210.806640625, 17875.94140625, 4116.83349609375, 0.0, 0.12400000542402267, -0.046000003814697266, 0.9940000176429749, 192.0, 0.0, 0.0, 0.0, 0.0, 0.0, 0.0, 0.0, 0.0, 0.0, 1.5977656503583596E9, 2020-08-18 08:47:30.358
18.0, 4564.18115234375, 15823.3583984375, 29416.884765625, 8584.8798828125, 7206.33642578125, 17868.744140625, 4114.978515625, 0.0, 0.12400000542402267, -0.046000003814697266, 0.9940000176429749, 192.0, 0.0, 0.0, 0.0, 0.0, 0.0, 0.0, 0.0, 0.0, 0.0, 1.5977656503583639E9, 2020-08-18 08:47:30.358
19.0, 4562.7509765625, 15822.2626953125, 29414.671875, 8595.3408203125, 7207.5654296875, 17866.5078125, 4116.05126953125, 0.0, 0.12400000542402267, -0.046000003814697266, 0.9940000176429749, 192.0, 0.0, 0.0, 0.0, 0.0, 0.0, 0.0, 0.0, 0.0, 0.0, 1.597765650358368E9, 2020-08-18 08:47:30.358
20.0, 4562.63916015625, 15820.7431640625, 29422.806640625, 8602.9853515625, 7211.29833984375, 17871.515625, 4117.548828125, 0.0, 0.12400000542402267, -0.046000003814697266, 0.9940000176429749, 192.0, 0.0, 0.0, 0.0, 0.0, 0.0, 0.0, 0.0, 0.0, 0.0, 1.597765650358372E9, 2020-08-18 08:47:30.358
21.0, 4565.38818359375, 15821.234375, 29419.857421875, 8600.8837890625, 7214.31591796875, 17878.421875, 4119.42626953125, 0.0, 0.12400000542402267, -0.046000003814697266, 0.9940000176429749, 192.0, 0.0, 0.0, 0.0, 0.0, 0.0, 0.0, 0.0, 0.0, 0.0, 1.5977656503583763E9, 2020-08-18 08:47:30.358
22.0, 4563.24267578125, 15820.072265625, 29410.71484375, 8592.0771484375, 7206.73876953125, 17869.16796875, 4113.1455078125, 0.0, 0.12400000542402267, -0.046000003814697266, 0.9940000176429749, 192.0, 0.0, 0.0, 0.0, 0.0, 0.0, 0.0, 0.0, 0.0, 0.0, 1.5977656503583827E9, 2020-08-18 08:47:30.358
23.0, 4565.142578125, 15824.3193359375, 29416.123046875, 8596.681640625, 7209.89013671875, 17866.0390625, 4114.93359375, 0.0, 0.12800000607967377, -0.046000003814697266, 0.9980000257492065, 192.0, 4.0, 0.0, 254.0, 144.0, 31.0, 48.0, 0.0, 0.0, 0.0, 1.5977656503584116E9, 2020-08-18 08:47:30.358
24.0, 4565.25439453125, 15824.2294921875, 29424.193359375, 8616.865234375, 7217.06494140625, 17871.783203125, 4116.83349609375, 0.0, 0.12800000607967377, -0.046000003814697266, 0.9980000257492065, 192.0, 0.0, 0.0, 0.0, 0.0, 0.0, 0.0, 0.0, 0.0, 0.0, 1.5977656503584192E9, 2020-08-18 08:47:30.358
25.0, 4568.31640625, 15827.0009765625, 29429.4453125, 8617.1337890625, 7220.26123046875, 17878.9140625, 4120.85693359375, 0.0, 0.12800000607967377, -0.046000003814697266, 0.9980000257492065, 192.0, 0.0, 0.0, 0.0, 0.0, 0.0, 0.0, 0.0, 0.0, 0.0, 1.597765650358424E9, 2020-08-18 08:47:30.358
26.0, 4567.310546875, 15826.666015625, 29427.2109375, 8608.8408203125, 7214.06982421875, 17876.052734375, 4119.1806640625, 0.0, 0.12800000607967377, -0.046000003814697266, 0.9980000257492065, 192.0, 0.0, 0.0, 0.0, 0.0, 0.0, 0.0, 0.0, 0.0, 0.0, 1.5977656503585174E9, 2020-08-18 08:47:30.358
27.0, 4560.18017578125, 15817.099609375, 29419.90234375, 8595.8994140625, 7203.810546875, 17863.24609375, 4111.3798828125, 0.0, 0.12800000607967377, -0.046000003814697266, 0.9980000257492065, 192.0, 0.0, 0.0, 0.0, 0.0, 0.0, 0.0, 0.0, 0.0, 0.0, 1.597765650358523E9, 2020-08-18 08:47:30.358
28.0, 4561.18603515625, 15812.2265625, 29416.81640625, 8597.6650390625, 7205.5537109375, 17866.0625, 4115.64892578125, 0.0, 0.12800000607967377, -0.046000003814697266, 0.9980000257492065, 192.0, 0.0, 0.0, 0.0, 0.0, 0.0, 0.0, 0.0, 0.0, 0.0, 1.5977656503585277E9, 2020-08-18 08:47:30.358
29.0, 4562.41552734375, 15815.6025390625, 29425.400390625, 8610.2490234375, 7209.755859375, 17874.197265625, 4120.521484375, 0.0, 0.12800000607967377, -0.046000003814697266, 0.9980000257492065, 192.0, 0.0, 0.0, 0.0, 0.0, 0.0, 0.0, 0.0, 0.0, 0.0, 1.5977656503585324E9, 2020-08-18 08:47:30.358
30.0, 4559.77783203125, 15816.787109375, 29415.029296875, 8593.306640625, 7204.92822265625, 17868.23046875, 4113.7939453125, 0.0, 0.12800000607967377, -0.046000003814697266, 0.9980000257492065, 192.0, 0.0, 0.0, 0.0, 0.0, 0.0, 0.0, 0.0, 0.0, 0.0, 1.5977656503585377E9, 2020-08-18 08:47:30.358
31.0, 4560.27001953125, 15817.8369140625, 29405.708984375, 8583.4716796875, 7204.14599609375, 17861.234375, 4109.7705078125, 0.0, 0.12800000607967377, -0.046000003814697266, 0.9980000257492065, 192.0, 0.0, 0.0, 0.0, 0.0, 0.0, 0.0, 0.0, 0.0, 0.0, 1.5977656503585424E9, 2020-08-18 08:47:30.358
32.0, 4560.158203125, 15821.435546875, 29423.455078125, 8604.03515625, 7210.5830078125, 17864.765625, 4111.3349609375, 0.0, 0.12800000607967377, -0.046000003814697266, 0.9980000257492065, 192.0, 0.0, 0.0, 0.0, 0.0, 0.0, 0.0, 0.0, 0.0, 0.0, 1.5977656503585472E9, 2020-08-18 08:47:30.358
33.0, 4558.3701171875, 15822.2626953125, 29436.330078125, 8615.2109375, 7215.2099609375, 17871.693359375, 4113.5927734375, 0.0, 0.12400000542402267, -0.04400000348687172, 0.9960000514984131, 192.0, 3.0, 224.0, 254.0, 160.0, 31.0, 32.0, 0.0, 0.0, 0.0, 1.5977656503585525E9, 2020-08-18 08:47:30.358
34.0, 4561.78955078125, 15819.46875, 29425.421875, 8602.203125, 7213.01953125, 17871.806640625, 4114.7099609375, 0.0, 0.12400000542402267, -0.04400000348687172, 0.9960000514984131, 192.0, 0.0, 0.0, 0.0, 0.0, 0.0, 0.0, 0.0, 0.0, 0.0, 1.5977656503585577E9, 2020-08-18 08:47:30.358
35.0, 4555.41943359375, 15811.9365234375, 29406.1328125, 8586.802734375, 7201.8212890625, 17859.490234375, 4107.69189453125, 0.0, 0.12400000542402267, -0.04400000348687172, 0.9960000514984131, 192.0, 0.0, 0.0, 0.0, 0.0, 0.0, 0.0, 0.0, 0.0, 0.0, 1.5977656503585632E9, 2020-08-18 08:47:30.358
36.0, 4553.18408203125, 15810.013671875, 29413.912109375, 8594.9609375, 7202.603515625, 17858.57421875, 4108.20556640625, 0.0, 0.12400000542402267, -0.04400000348687172, 0.9960000514984131, 192.0, 0.0, 0.0, 0.0, 0.0, 0.0, 0.0, 0.0, 0.0, 0.0, 1.5977656503585684E9, 2020-08-18 08:47:30.358
37.0, 4552.84912109375, 15808.046875, 29428.08203125, 8604.169921875, 7203.87744140625, 17860.630859375, 4107.44580078125, 0.0, 0.12400000542402267, -0.04400000348687172, 0.9960000514984131, 192.0, 0.0, 0.0, 0.0, 0.0, 0.0, 0.0, 0.0, 0.0, 0.0, 1.5977656503585737E9, 2020-08-18 08:47:30.358
38.0, 4556.64892578125, 15813.9931640625, 29430.4296875, 8608.908203125, 7207.45361328125, 17865.369140625, 4108.07177734375, 0.0, 0.12400000542402267, -0.04400000348687172, 0.9960000514984131, 192.0, 0.0, 0.0, 0.0, 0.0, 0.0, 0.0, 0.0, 0.0, 0.0, 1.5977656503585787E9, 2020-08-18 08:47:30.358
39.0, 4557.4755859375, 15810.3046875, 29411.072265625, 8590.9150390625, 7201.08349609375, 17856.00390625, 4103.310546875, 0.0, 0.12400000542402267, -0.04400000348687172, 0.9960000514984131, 192.0, 0.0, 0.0, 0.0, 0.0, 0.0, 0.0, 0.0, 0.0, 0.0, 1.5977656503585837E9, 2020-08-18 08:47:30.358
40.0, 4550.79248046875, 15807.4658203125, 29411.1171875, 8582.7119140625, 7199.67529296875, 17852.025390625, 4104.02587890625, 0.0, 0.12400000542402267, -0.04400000348687172, 0.9960000514984131, 192.0, 0.0, 0.0, 0.0, 0.0, 0.0, 0.0, 0.0, 0.0, 0.0, 1.5977656503585887E9, 2020-08-18 08:47:30.358
41.0, 4552.7373046875, 15811.5791015625, 29421.734375, 8599.3193359375, 7208.05712890625, 17861.48046875, 4108.138671875, 0.0, 0.12400000542402267, -0.04400000348687172, 0.9960000514984131, 192.0, 0.0, 0.0, 0.0, 0.0, 0.0, 0.0, 0.0, 0.0, 0.0, 1.5977656503585937E9, 2020-08-18 08:47:30.358
42.0, 4558.3701171875, 15812.8076171875, 29414.1796875, 8602.9853515625, 7208.07958984375, 17867.068359375, 4111.46923828125, 0.0, 0.12400000542402267, -0.04400000348687172, 0.9960000514984131, 192.0, 0.0, 0.0, 0.0, 0.0, 0.0, 0.0, 0.0, 0.0, 0.0, 1.5977656503585987E9, 2020-08-18 08:47:30.358
43.0, 4558.90625, 15809.4775390625, 29396.54296875, 8586.712890625, 7199.8095703125, 17859.712890625, 4109.1669921875, 0.0, 0.12600000202655792, -0.052000001072883606, 0.9940000176429749, 192.0, 3.0, 240.0, 254.0, 96.0, 31.0, 16.0, 0.0, 0.0, 0.0, 1.5977656503586032E9, 2020-08-18 08:47:30.358
44.0, 4560.0908203125, 15812.9423828125, 29395.8515625, 8587.271484375, 7203.87744140625, 17858.685546875, 4111.69287109375, 0.0, 0.12600000202655792, -0.052000001072883606, 0.9940000176429749, 192.0, 0.0, 0.0, 0.0, 0.0, 0.0, 0.0, 0.0, 0.0, 0.0, 1.597765650358608E9, 2020-08-18 08:47:30.358
45.0, 4555.46435546875, 15810.349609375, 29407.25, 8600.01171875, 7207.92333984375, 17862.6640625, 4110.9326171875, 0.0, 0.12600000202655792, -0.052000001072883606, 0.9940000176429749, 192.0, 0.0, 0.0, 0.0, 0.0, 0.0, 0.0, 0.0, 0.0, 0.0, 1.5977656503586173E9, 2020-08-18 08:47:30.358
46.0, 4557.00634765625, 15811.154296875, 29409.73046875, 8604.0576171875, 7207.87841796875, 17868.162109375, 4111.67041015625, 0.0, 0.12600000202655792, -0.052000001072883606, 0.9940000176429749, 192.0, 0.0, 0.0, 0.0, 0.0, 0.0, 0.0, 0.0, 0.0, 0.0, 1.5977656503586226E9, 2020-08-18 08:47:30.358
47.0, 4558.5712890625, 15808.78515625, 29397.3046875, 8591.541015625, 7201.75439453125, 17862.3515625, 4108.89892578125, 0.0, 0.12600000202655792, -0.052000001072883606, 0.9940000176429749, 192.0, 0.0, 0.0, 0.0, 0.0, 0.0, 0.0, 0.0, 0.0, 0.0, 1.597765650358628E9, 2020-08-18 08:47:30.358
48.0, 4561.78955078125, 15811.7578125, 29411.02734375, 8599.7890625, 7205.0400390625, 17860.96484375, 4113.07861328125, 0.0, 0.12600000202655792, -0.052000001072883606, 0.9940000176429749, 192.0, 0.0, 0.0, 0.0, 0.0, 0.0, 0.0, 0.0, 0.0, 0.0, 1.5977656503586402E9, 2020-08-18 08:47:30.358
49.0, 4575.111328125, 15819.267578125, 29419.56640625, 8606.1142578125, 7216.28271484375, 17872.744140625, 4128.45654296875, 0.0, 0.12600000202655792, -0.052000001072883606, 0.9940000176429749, 192.0, 0.0, 0.0, 0.0, 0.0, 0.0, 0.0, 0.0, 0.0, 0.0, 1.597765650358652E9, 2020-08-18 08:47:30.358
50.0, 4584.78955078125, 15826.8896484375, 29422.0703125, 8605.734375, 7223.25634765625, 17884.501953125, 4141.1298828125, 0.0, 0.12600000202655792, -0.052000001072883606, 0.9940000176429749, 192.0, 0.0, 0.0, 0.0, 0.0, 0.0, 0.0, 0.0, 0.0, 0.0, 1.5977656503586662E9, 2020-08-18 08:47:30.358
51.0, 4566.03662109375, 15813.1435546875, 29407.138671875, 8589.6181640625, 7204.27978515625, 17865.32421875, 4117.302734375, 0.0, 0.12600000202655792, -0.052000001072883606, 0.9940000176429749, 192.0, 0.0, 0.0, 0.0, 0.0, 0.0, 0.0, 0.0, 0.0, 0.0, 1.597765650358678E9, 2020-08-18 08:47:30.358
52.0, 4546.47900390625, 15803.5322265625, 29401.52734375, 8590.177734375, 7195.09326171875, 17850.728515625, 4101.90283203125, 0.0, 0.12600000202655792, -0.052000001072883606, 0.9940000176429749, 192.0, 0.0, 0.0, 0.0, 0.0, 0.0, 0.0, 0.0, 0.0, 0.0, 1.597765650358683E9, 2020-08-18 08:47:30.358
53.0, 4550.501953125, 15808.9189453125, 29413.8671875, 8612.88671875, 7207.185546875, 17859.109375, 4109.591796875, 0.0, 0.12800000607967377, -0.04800000041723251, 0.9960000514984131, 192.0, 4.0, 0.0, 254.0, 128.0, 31.0, 32.0, 0.0, 0.0, 0.0, 1.597765650358688E9, 2020-08-18 08:47:30.358
54.0, 4553.81005859375, 15809.7685546875, 29425.35546875, 8619.3017578125, 7207.0517578125, 17863.06640625, 4108.943359375, 0.0, 0.12800000607967377, -0.04800000041723251, 0.9960000514984131, 192.0, 0.0, 0.0, 0.0, 0.0, 0.0, 0.0, 0.0, 0.0, 0.0, 1.597765650358693E9, 2020-08-18 08:47:30.358
55.0, 4548.5576171875, 15806.3037109375, 29414.849609375, 8590.5126953125, 7196.90380859375, 17855.4453125, 4102.908203125, 0.0, 0.12800000607967377, -0.04800000041723251, 0.9960000514984131, 192.0, 0.0, 0.0, 0.0, 0.0, 0.0, 0.0, 0.0, 0.0, 0.0, 1.5977656503586981E9, 2020-08-18 08:47:30.358
56.0, 4537.0908203125, 15795.7763671875, 29395.650390625, 8568.2724609375, 7185.4150390625, 17843.263671875, 4094.302978515625, 0.0, 0.12800000607967377, -0.04800000041723251, 0.9960000514984131, 192.0, 0.0, 0.0, 0.0, 0.0, 0.0, 0.0, 0.0, 0.0, 0.0, 1.5977656503587036E9, 2020-08-18 08:47:30.358
57.0, 4530.9443359375, 15791.484375, 29406.6015625, 8582.779296875, 7186.86767578125, 17840.603515625, 4088.759765625, 0.0, 0.12800000607967377, -0.04800000041723251, 0.9960000514984131, 192.0, 0.0, 0.0, 0.0, 0.0, 0.0, 0.0, 0.0, 0.0, 0.0, 1.5977656503587089E9, 2020-08-18 08:47:30.358
58.0, 4531.27978515625, 15795.2392578125, 29411.85546875, 8599.810546875, 7194.19921875, 17846.66015625, 4089.5419921875, 0.0, 0.12800000607967377, -0.04800000041723251, 0.9960000514984131, 192.0, 0.0, 0.0, 0.0, 0.0, 0.0, 0.0, 0.0, 0.0, 0.0, 1.5977656503587134E9, 2020-08-18 08:47:30.358
59.0, 4526.3623046875, 15791.8193359375, 29403.94140625, 8587.5625, 7186.9794921875, 17840.267578125, 4081.5400390625, 0.0, 0.12800000607967377, -0.04800000041723251, 0.9960000514984131, 192.0, 0.0, 0.0, 0.0, 0.0, 0.0, 0.0, 0.0, 0.0, 0.0, 1.5977656503587215E9, 2020-08-18 08:47:30.358
60.0, 4530.7880859375, 15792.7587890625, 29397.70703125, 8582.33203125, 7182.375, 17833.31640625, 4081.026123046875, 0.0, 0.12800000607967377, -0.04800000041723251, 0.9960000514984131, 192.0, 0.0, 0.0, 0.0, 0.0, 0.0, 0.0, 0.0, 0.0, 0.0, 1.5977656503587277E9, 2020-08-18 08:47:30.358
61.0, 4521.556640625, 15789.2939453125, 29399.046875, 8590.4677734375, 7181.34716796875, 17827.482421875, 4074.67822265625, 0.0, 0.12800000607967377, -0.04800000041723251, 0.9960000514984131, 192.0, 0.0, 0.0, 0.0, 0.0, 0.0, 0.0, 0.0, 0.0, 0.0, 1.5977656503587327E9, 2020-08-18 08:47:30.358
62.0, 4518.85205078125, 15790.970703125, 29406.982421875, 8599.498046875, 7187.046875, 17835.08203125, 4074.409912109375, 0.0, 0.12800000607967377, -0.04800000041723251, 0.9960000514984131, 192.0, 0.0, 0.0, 0.0, 0.0, 0.0, 0.0, 0.0, 0.0, 0.0, 1.5977656503587377E9, 2020-08-18 08:47:30.358
63.0, 4522.96484375, 15791.685546875, 29405.349609375, 8598.4921875, 7186.35400390625, 17840.357421875, 4080.310791015625, 0.0, 0.12800000607967377, -0.04400000348687172, 0.9960000514984131, 192.0, 4.0, 0.0, 254.0, 160.0, 31.0, 32.0, 0.0, 0.0, 0.0, 1.5977656503587422E9, 2020-08-18 08:47:30.358
64.0, 4524.9541015625, 15788.3330078125, 29399.31640625, 8581.8623046875, 7178.4638671875, 17833.205078125, 4079.595458984375, 0.0, 0.12800000607967377, -0.04400000348687172, 0.9960000514984131, 192.0, 0.0, 0.0, 0.0, 0.0, 0.0, 0.0, 0.0, 0.0, 0.0, 1.5977656503587472E9, 2020-08-18 08:47:30.358
65.0, 4518.47216796875, 15784.2421875, 29405.685546875, 8588.6796875, 7176.89892578125, 17828.130859375, 4073.7841796875, 0.0, 0.12800000607967377, -0.04400000348687172, 0.9960000514984131, 192.0, 0.0, 0.0, 0.0, 0.0, 0.0, 0.0, 0.0, 0.0, 0.0, 1.5977656503587527E9, 2020-08-18 08:47:30.358
66.0, 4514.11328125, 15783.7509765625, 29409.59765625, 8601.2412109375, 7183.58203125, 17836.06640625, 4076.376953125, 0.0, 0.12800000607967377, -0.04400000348687172, 0.9960000514984131, 192.0, 0.0, 0.0, 0.0, 0.0, 0.0, 0.0, 0.0, 0.0, 0.0, 1.5977656503587575E9, 2020-08-18 08:47:30.358
67.0, 4523.5234375, 15787.5283203125, 29403.16015625, 8591.4736328125, 7187.1806640625, 17841.85546875, 4083.46240234375, 0.0, 0.12800000607967377, -0.04400000348687172, 0.9960000514984131, 192.0, 0.0, 0.0, 0.0, 0.0, 0.0, 0.0, 0.0, 0.0, 0.0, 1.5977656503587627E9, 2020-08-18 08:47:30.358
68.0, 4522.4951171875, 15790.814453125, 29394.912109375, 8581.4375, 7184.74462890625, 17835.26171875, 4080.08740234375, 0.0, 0.12800000607967377, -0.04400000348687172, 0.9960000514984131, 192.0, 0.0, 0.0, 0.0, 0.0, 0.0, 0.0, 0.0, 0.0, 0.0, 1.597765650358771E9, 2020-08-18 08:47:30.358
69.0, 4514.09130859375, 15782.3203125, 29394.8671875, 8580.365234375, 7175.4462890625, 17822.1171875, 4071.012451171875, 0.0, 0.12800000607967377, -0.04400000348687172, 0.9960000514984131, 192.0, 0.0, 0.0, 0.0, 0.0, 0.0, 0.0, 0.0, 0.0, 0.0, 1.5977656503587763E9, 2020-08-18 08:47:30.358
70.0, 4512.61572265625, 15779.75, 29406.490234375, 8591.853515625, 7177.32373046875, 17825.939453125, 4073.76171875, 0.0, 0.12800000607967377, -0.04400000348687172, 0.9960000514984131, 192.0, 0.0, 0.0, 0.0, 0.0, 0.0, 0.0, 0.0, 0.0, 0.0, 1.597765650358781E9, 2020-08-18 08:47:30.358
71.0, 4521.19873046875, 15789.0478515625, 29414.693359375, 8593.150390625, 7184.6103515625, 17836.1328125, 4079.908447265625, 0.0, 0.12800000607967377, -0.04400000348687172, 0.9960000514984131, 192.0, 0.0, 0.0, 0.0, 0.0, 0.0, 0.0, 0.0, 0.0, 0.0, 1.597765650358786E9, 2020-08-18 08:47:30.358
72.0, 4521.556640625, 15790.7919921875, 29402.064453125, 8584.9921875, 7182.68798828125, 17833.294921875, 4077.293212890625, 0.0, 0.12800000607967377, -0.052000001072883606, 0.9960000514984131, 192.0, 4.0, 0.0, 254.0, 96.0, 31.0, 32.0, 0.0, 0.0, 0.0, 1.597765650358791E9, 2020-08-18 08:47:30.358
73.0, 4515.81201171875, 15784.7568359375, 29386.8203125, 8573.525390625, 7177.0107421875, 17825.537109375, 4073.1806640625, 0.0, 0.12800000607967377, -0.052000001072883606, 0.9960000514984131, 192.0, 0.0, 0.0, 0.0, 0.0, 0.0, 0.0, 0.0, 0.0, 0.0, 1.597765650358796E9, 2020-08-18 08:47:30.358
74.0, 4515.3427734375, 15776.62109375, 29396.431640625, 8587.205078125, 7175.15576171875, 17824.64453125, 4071.75, 0.0, 0.12800000607967377, -0.052000001072883606, 0.9960000514984131, 192.0, 0.0, 0.0, 0.0, 0.0, 0.0, 0.0, 0.0, 0.0, 0.0, 1.597765650358801E9, 2020-08-18 08:47:30.358
75.0, 4517.80126953125, 15779.5712890625, 29408.724609375, 8595.4970703125, 7181.16796875, 17833.451171875, 4078.1650390625, 0.0, 0.12800000607967377, -0.052000001072883606, 0.9960000514984131, 192.0, 0.0, 0.0, 0.0, 0.0, 0.0, 0.0, 0.0, 0.0, 0.0, 1.597765650358806E9, 2020-08-18 08:47:30.358
76.0, 4517.3095703125, 15782.7451171875, 29396.701171875, 8583.740234375, 7178.2177734375, 17831.23828125, 4077.94140625, 0.0, 0.12800000607967377, -0.052000001072883606, 0.9960000514984131, 192.0, 0.0, 0.0, 0.0, 0.0, 0.0, 0.0, 0.0, 0.0, 0.0, 1.5977656503588111E9, 2020-08-18 08:47:30.358
77.0, 4514.44873046875, 15780.353515625, 29388.630859375, 8579.716796875, 7170.35009765625, 17818.564453125, 4069.67138671875, 0.0, 0.12800000607967377, -0.052000001072883606, 0.9960000514984131, 192.0, 0.0, 0.0, 0.0, 0.0, 0.0, 0.0, 0.0, 0.0, 0.0, 1.5977656503588166E9, 2020-08-18 08:47:30.358
78.0, 4514.67236328125, 15783.37109375, 29403.16015625, 8595.2734375, 7179.11181640625, 17824.822265625, 4078.031005859375, 0.0, 0.12800000607967377, -0.052000001072883606, 0.9960000514984131, 192.0, 0.0, 0.0, 0.0, 0.0, 0.0, 0.0, 0.0, 0.0, 0.0, 1.5977656503588219E9, 2020-08-18 08:47:30.358
79.0, 4521.35546875, 15786.2099609375, 29409.552734375, 8602.42578125, 7186.443359375, 17834.814453125, 4084.199951171875, 0.0, 0.12800000607967377, -0.052000001072883606, 0.9960000514984131, 192.0, 0.0, 0.0, 0.0, 0.0, 0.0, 0.0, 0.0, 0.0, 0.0, 1.5977656503588269E9, 2020-08-18 08:47:30.358
80.0, 4525.580078125, 15787.86328125, 29394.419921875, 8593.41796875, 7183.93994140625, 17836.37890625, 4086.435302734375, 0.0, 0.12800000607967377, -0.052000001072883606, 0.9960000514984131, 192.0, 0.0, 0.0, 0.0, 0.0, 0.0, 0.0, 0.0, 0.0, 0.0, 1.5977656503588316E9, 2020-08-18 08:47:30.358
81.0, 4524.46240234375, 15787.55078125, 29397.662109375, 8584.142578125, 7180.36376953125, 17826.96875, 4079.3720703125, 0.0, 0.12800000607967377, -0.052000001072883606, 0.9960000514984131, 192.0, 0.0, 0.0, 0.0, 0.0, 0.0, 0.0, 0.0, 0.0, 0.0, 1.5977656503588367E9, 2020-08-18 08:47:30.358
82.0, 4521.9814453125, 15788.2431640625, 29408.994140625, 8591.09375, 7186.80078125, 17827.080078125, 4078.07568359375, 0.0, 0.12800000607967377, -0.05000000074505806, 0.9980000257492065, 192.0, 4.0, 0.0, 254.0, 112.0, 31.0, 48.0, 0.0, 0.0, 0.0, 1.5977656503588417E9, 2020-08-18 08:47:30.358
83.0, 4519.9248046875, 15784.5107421875, 29404.12109375, 8597.77734375, 7185.99609375, 17830.90234375, 4078.232177734375, 0.0, 0.12800000607967377, -0.05000000074505806, 0.9980000257492065, 192.0, 0.0, 0.0, 0.0, 0.0, 0.0, 0.0, 0.0, 0.0, 0.0, 1.5977656503588467E9, 2020-08-18 08:47:30.358
84.0, 4518.181640625, 15779.0126953125, 29390.21875, 8583.0244140625, 7176.4521484375, 17825.873046875, 4075.907470703125, 0.0, 0.12800000607967377, -0.05000000074505806, 0.9980000257492065, 192.0, 0.0, 0.0, 0.0, 0.0, 0.0, 0.0, 0.0, 0.0, 0.0, 1.5977656503588517E9, 2020-08-18 08:47:30.358
85.0, 4515.85693359375, 15774.2734375, 29380.583984375, 8568.9208984375, 7167.01953125, 17815.412109375, 4071.7724609375, 0.0, 0.12800000607967377, -0.05000000074505806, 0.9980000257492065, 192.0, 0.0, 0.0, 0.0, 0.0, 0.0, 0.0, 0.0, 0.0, 0.0, 1.5977656503588564E9, 2020-08-18 08:47:30.358
86.0, 4518.3828125, 15774.2734375, 29383.267578125, 8574.8212890625, 7171.244140625, 17817.08984375, 4074.85693359375, 0.0, 0.12800000607967377, -0.05000000074505806, 0.9980000257492065, 192.0, 0.0, 0.0, 0.0, 0.0, 0.0, 0.0, 0.0, 0.0, 0.0, 1.5977656503588614E9, 2020-08-18 08:47:30.358
87.0, 4520.7744140625, 15776.0390625, 29395.1796875, 8596.9501953125, 7177.34619140625, 17827.05859375, 4080.04248046875, 0.0, 0.12800000607967377, -0.05000000074505806, 0.9980000257492065, 192.0, 0.0, 0.0, 0.0, 0.0, 0.0, 0.0, 0.0, 0.0, 0.0, 1.5977656503588684E9, 2020-08-18 08:47:30.358
88.0, 4525.06591796875, 15779.1689453125, 29395.537109375, 8590.2001953125, 7179.3798828125, 17830.27734375, 4081.5849609375, 0.0, 0.12800000607967377, -0.05000000074505806, 0.9980000257492065, 192.0, 0.0, 0.0, 0.0, 0.0, 0.0, 0.0, 0.0, 0.0, 0.0, 1.5977656503588731E9, 2020-08-18 08:47:30.358
89.0, 4519.88037109375, 15777.783203125, 29387.423828125, 8579.60546875, 7172.76416015625, 17820.083984375, 4075.572265625, 0.0, 0.12800000607967377, -0.05000000074505806, 0.9980000257492065, 192.0, 0.0, 0.0, 0.0, 0.0, 0.0, 0.0, 0.0, 0.0, 0.0, 1.5977656503588784E9, 2020-08-18 08:47:30.358
90.0, 4518.22607421875, 15776.12890625, 29388.095703125, 8586.712890625, 7170.841796875, 17817.08984375, 4074.25341796875, 0.0, 0.12800000607967377, -0.05000000074505806, 0.9980000257492065, 192.0, 0.0, 0.0, 0.0, 0.0, 0.0, 0.0, 0.0, 0.0, 0.0, 1.5977656503588831E9, 2020-08-18 08:47:30.358
91.0, 4520.81884765625, 15778.9677734375, 29400.27734375, 8592.658203125, 7180.07275390625, 17825.1796875, 4078.991943359375, 0.0, 0.12800000607967377, -0.05000000074505806, 0.9980000257492065, 192.0, 0.0, 0.0, 0.0, 0.0, 0.0, 0.0, 0.0, 0.0, 0.0, 1.5977656503588912E9, 2020-08-18 08:47:30.358
92.0, 4526.85400390625, 15788.3779296875, 29410.201171875, 8597.28515625, 7186.3759765625, 17832.130859375, 4084.401123046875, 0.0, 0.12800000607967377, -0.046000003814697266, 0.9980000257492065, 192.0, 4.0, 0.0, 254.0, 144.0, 31.0, 48.0, 0.0, 0.0, 0.0, 1.5977656503588965E9, 2020-08-18 08:47:30.358
93.0, 4526.3623046875, 15788.3330078125, 29402.466796875, 8584.7685546875, 7180.453125, 17826.87890625, 4079.84130859375, 0.0, 0.12800000607967377, -0.046000003814697266, 0.9980000257492065, 192.0, 0.0, 0.0, 0.0, 0.0, 0.0, 0.0, 0.0, 0.0, 0.0, 1.5977656503589013E9, 2020-08-18 08:47:30.358
94.0, 4522.00341796875, 15780.5771484375, 29393.861328125, 8579.4482421875, 7173.8369140625, 17817.513671875, 4074.1865234375, 0.0, 0.12800000607967377, -0.046000003814697266, 0.9980000257492065, 192.0, 0.0, 0.0, 0.0, 0.0, 0.0, 0.0, 0.0, 0.0, 0.0, 1.5977656503589063E9, 2020-08-18 08:47:30.358
95.0, 4521.9814453125, 15777.6259765625, 29398.98046875, 8592.3232421875, 7177.5693359375, 17822.900390625, 4078.433349609375, 0.0, 0.12800000607967377, -0.046000003814697266, 0.9980000257492065, 192.0, 0.0, 0.0, 0.0, 0.0, 0.0, 0.0, 0.0, 0.0, 0.0, 1.5977656503589113E9, 2020-08-18 08:47:30.358
96.0, 4525.64697265625, 15780.8671875, 29409.328125, 8600.99609375, 7181.74951171875, 17830.6796875, 4083.06005859375, 0.0, 0.12800000607967377, -0.046000003814697266, 0.9980000257492065, 192.0, 0.0, 0.0, 0.0, 0.0, 0.0, 0.0, 0.0, 0.0, 0.0, 1.5977656503589163E9, 2020-08-18 08:47:30.358
97.0, 4523.166015625, 15781.7392578125, 29391.201171875, 8584.7685546875, 7179.46923828125, 17826.65625, 4081.115478515625, 0.0, 0.12800000607967377, -0.046000003814697266, 0.9980000257492065, 192.0, 0.0, 0.0, 0.0, 0.0, 0.0, 0.0, 0.0, 0.0, 0.0, 1.5977656503589213E9, 2020-08-18 08:47:30.358
98.0, 4522.07080078125, 15778.0068359375, 29384.25, 8577.5712890625, 7176.4296875, 17820.888671875, 4080.489501953125, 0.0, 0.12800000607967377, -0.046000003814697266, 0.9980000257492065, 192.0, 0.0, 0.0, 0.0, 0.0, 0.0, 0.0, 0.0, 0.0, 0.0, 1.5977656503589263E9, 2020-08-18 08:47:30.358
99.0, 4520.751953125, 15773.201171875, 29396.923828125, 8592.814453125, 7176.76513671875, 17822.4765625, 4080.422607421875, 0.0, 0.12800000607967377, -0.046000003814697266, 0.9980000257492065, 192.0, 0.0, 0.0, 0.0, 0.0, 0.0, 0.0, 0.0, 0.0, 0.0, 1.5977656503589313E9, 2020-08-18 08:47:30.358
100.0, 4529.1337890625, 15778.1181640625, 29398.98046875, 8601.5771484375, 7184.6328125, 17834.27734375, 4089.3408203125, 0.0, 0.12800000607967377, -0.046000003814697266, 0.9980000257492065, 192.0, 0.0, 0.0, 0.0, 0.0, 0.0, 0.0, 0.0, 0.0, 0.0, 1.597765650358936E9, 2020-08-18 08:47:30.358
101.0, 4524.61865234375, 15774.720703125, 29383.826171875, 8576.4306640625, 7176.72021484375, 17825.716796875, 4080.9814453125, 0.0, 0.12800000607967377, -0.046000003814697266, 0.9980000257492065, 192.0, 0.0, 0.0, 0.0, 0.0, 0.0, 0.0, 0.0, 0.0, 0.0, 1.5977656503589408E9, 2020-08-18 08:47:30.358
102.0, 4514.7392578125, 15766.4501953125, 29373.052734375, 8562.4169921875, 7164.806640625, 17810.47265625, 4069.000732421875, 0.0, 0.12800000607967377, -0.04200000315904617, 0.9960000514984131, 192.0, 4.0, 0.0, 254.0, 176.0, 31.0, 32.0, 0.0, 0.0, 0.0, 1.597765650358946E9, 2020-08-18 08:47:30.358
103.0, 4513.26416015625, 15765.7802734375, 29382.462890625, 8578.1748046875, 7167.95849609375, 17814.18359375, 4073.47119140625, 0.0, 0.12800000607967377, -0.04200000315904617, 0.9960000514984131, 192.0, 0.0, 0.0, 0.0, 0.0, 0.0, 0.0, 0.0, 0.0, 0.0, 1.597765650358951E9, 2020-08-18 08:47:30.358
104.0, 4523.83642578125, 15776.486328125, 29400.455078125, 8599.408203125, 7182.6435546875, 17829.091796875, 4083.43994140625, 0.0, 0.12800000607967377, -0.04200000315904617, 0.9960000514984131, 192.0, 0.0, 0.0, 0.0, 0.0, 0.0, 0.0, 0.0, 0.0, 0.0, 1.597765650358956E9, 2020-08-18 08:47:30.358
105.0, 4525.82568359375, 15779.0791015625, 29391.42578125, 8598.8720703125, 7181.14599609375, 17829.62890625, 4085.07177734375, 0.0, 0.12800000607967377, -0.04200000315904617, 0.9960000514984131, 192.0, 0.0, 0.0, 0.0, 0.0, 0.0, 0.0, 0.0, 0.0, 0.0, 1.597765650358961E9, 2020-08-18 08:47:30.358
106.0, 4525.84814453125, 15776.28515625, 29377.076171875, 8582.64453125, 7173.16650390625, 17819.771484375, 4080.958984375, 0.0, 0.12800000607967377, -0.04200000315904617, 0.9960000514984131, 192.0, 0.0, 0.0, 0.0, 0.0, 0.0, 0.0, 0.0, 0.0, 0.0, 1.597765650358966E9, 2020-08-18 08:47:30.358
107.0, 4520.103515625, 15770.541015625, 29374.6171875, 8580.365234375, 7172.29443359375, 17816.529296875, 4080.28857421875, 0.0, 0.12800000607967377, -0.04200000315904617, 0.9960000514984131, 192.0, 0.0, 0.0, 0.0, 0.0, 0.0, 0.0, 0.0, 0.0, 0.0, 1.597765650358971E9, 2020-08-18 08:47:30.358
108.0, 4517.80126953125, 15769.8037109375, 29379.109375, 8589.685546875, 7173.76953125, 17821.513671875, 4081.45068359375, 0.0, 0.12800000607967377, -0.04200000315904617, 0.9960000514984131, 192.0, 0.0, 0.0, 0.0, 0.0, 0.0, 0.0, 0.0, 0.0, 0.0, 1.597765650358976E9, 2020-08-18 08:47:30.358
109.0, 4520.39404296875, 15770.943359375, 29380.830078125, 8581.2587890625, 7170.796875, 17823.59375, 4082.9482421875, 0.0, 0.12800000607967377, -0.04200000315904617, 0.9960000514984131, 192.0, 0.0, 0.0, 0.0, 0.0, 0.0, 0.0, 0.0, 0.0, 0.0, 1.597765650358981E9, 2020-08-18 08:47:30.358
110.0, 4517.19775390625, 15767.5458984375, 29363.775390625, 8560.025390625, 7163.0185546875, 17812.57421875, 4076.04150390625, 0.0, 0.12800000607967377, -0.04200000315904617, 0.9960000514984131, 192.0, 0.0, 0.0, 0.0, 0.0, 0.0, 0.0, 0.0, 0.0, 0.0, 1.597765650358986E9, 2020-08-18 08:47:30.358
111.0, 4512.81689453125, 15768.685546875, 29365.384765625, 8574.1064453125, 7167.15380859375, 17811.142578125, 4074.409912109375, 0.0, 0.12800000607967377, -0.04200000315904617, 0.9960000514984131, 192.0, 0.0, 0.0, 0.0, 0.0, 0.0, 0.0, 0.0, 0.0, 0.0, 1.597765650358991E9, 2020-08-18 08:47:30.358
112.0, 4512.25830078125, 15770.048828125, 29379.892578125, 8589.529296875, 7175.28955078125, 17819.212890625, 4078.27685546875, 0.0, 0.12200000882148743, -0.04400000348687172, 0.9940000176429749, 192.0, 3.0, 208.0, 254.0, 160.0, 31.0, 16.0, 0.0, 0.0, 0.0, 1.5977656503589957E9, 2020-08-18 08:47:30.358
113.0, 4515.61083984375, 15769.84765625, 29375.95703125, 8582.1083984375, 7172.16064453125, 17821.447265625, 4077.7626953125, 0.0, 0.12200000882148743, -0.04400000348687172, 0.9940000176429749, 192.0, 0.0, 0.0, 0.0, 0.0, 0.0, 0.0, 0.0, 0.0, 0.0, 1.5977656503590007E9, 2020-08-18 08:47:30.359
114.0, 4516.28173828125, 15772.2841796875, 29369.07421875, 8572.408203125, 7167.33251953125, 17815.2109375, 4075.795654296875, 0.0, 0.12200000882148743, -0.04400000348687172, 0.9940000176429749, 192.0, 0.0, 0.0, 0.0, 0.0, 0.0, 0.0, 0.0, 0.0, 0.0, 1.5977656503590057E9, 2020-08-18 08:47:30.359
115.0, 4513.353515625, 15769.9375, 29370.83984375, 8575.3134765625, 7166.1923828125, 17811.45703125, 4075.68408203125, 0.0, 0.12200000882148743, -0.04400000348687172, 0.9940000176429749, 192.0, 0.0, 0.0, 0.0, 0.0, 0.0, 0.0, 0.0, 0.0, 0.0, 1.5977656503590136E9, 2020-08-18 08:47:30.359
116.0, 4515.7900390625, 15767.27734375, 29378.3046875, 8588.970703125, 7169.6123046875, 17816.26171875, 4078.723876953125, 0.0, 0.12200000882148743, -0.04400000348687172, 0.9940000176429749, 192.0, 0.0, 0.0, 0.0, 0.0, 0.0, 0.0, 0.0, 0.0, 0.0, 1.5977656503590183E9, 2020-08-18 08:47:30.359
117.0, 4524.5517578125, 15770.3623046875, 29379.109375, 8587.3837890625, 7172.9873046875, 17822.921875, 4084.624755859375, 0.0, 0.12200000882148743, -0.04400000348687172, 0.9940000176429749, 192.0, 0.0, 0.0, 0.0, 0.0, 0.0, 0.0, 0.0, 0.0, 0.0, 1.5977656503590236E9, 2020-08-18 08:47:30.359
118.0, 4515.56640625, 15765.2431640625, 29369.4765625, 8574.21875, 7164.33740234375, 17814.83203125, 4077.78515625, 0.0, 0.12200000882148743, -0.04400000348687172, 0.9940000176429749, 192.0, 0.0, 0.0, 0.0, 0.0, 0.0, 0.0, 0.0, 0.0, 0.0, 1.5977656503590283E9, 2020-08-18 08:47:30.359
119.0, 4505.5078125, 15760.9296875, 29367.75390625, 8569.904296875, 7160.69384765625, 17807.43359375, 4071.07958984375, 0.0, 0.12200000882148743, -0.04400000348687172, 0.9940000176429749, 192.0, 0.0, 0.0, 0.0, 0.0, 0.0, 0.0, 0.0, 0.0, 0.0, 1.597765650359033E9, 2020-08-18 08:47:30.359
120.0, 4508.32421875, 15764.3046875, 29379.51171875, 8586.01953125, 7169.29931640625, 17819.16796875, 4082.389404296875, 0.0, 0.12200000882148743, -0.04400000348687172, 0.9940000176429749, 192.0, 0.0, 0.0, 0.0, 0.0, 0.0, 0.0, 0.0, 0.0, 0.0, 1.597765650359038E9, 2020-08-18 08:47:30.359
0.0, 0.0, 0.0, 0.0, 0.0, 0.0, 0.0, 0.0, 0.0, 0.1300000101327896, -0.04800000041723251, 0.9940000176429749, 192.0, 4.0, 16.0, 254.0, 128.0, 31.0, 16.0, 0.0, 0.0, 0.0, 1.5977656504506772E9, 2020-08-18 08:47:30.450
1.0, 4635.17041015625, 15455.91796875, 29028.208984375, 8570.2392578125, 6840.5947265625, 17660.359375, 3865.219970703125, 0.0, 0.1300000101327896, -0.04800000041723251, 0.9940000176429749, 192.0, 0.0, 0.0, 0.0, 0.0, 0.0, 0.0, 0.0, 0.0, 0.0, 1.5977656509287076E9, 2020-08-18 08:47:30.928
2.0, 4629.80615234375, 15444.853515625, 29021.19140625, 8563.0419921875, 6829.93310546875, 17650.9921875, 3858.55908203125, 0.0, 0.1300000101327896, -0.04800000041723251, 0.9940000176429749, 192.0, 0.0, 0.0, 0.0, 0.0, 0.0, 0.0, 0.0, 0.0, 0.0, 1.5977656509291787E9, 2020-08-18 08:47:30.929
3.0, 4638.27734375, 15456.6328125, 29039.072265625, 8591.6298828125, 6846.80859375, 17665.5, 3868.97509765625, 0.0, 0.1300000101327896, -0.04800000041723251, 0.9940000176429749, 192.0, 0.0, 0.0, 0.0, 0.0, 0.0, 0.0, 0.0, 0.0, 0.0, 1.59776565092927E9, 2020-08-18 08:47:30.929
4.0, 4644.71484375, 15464.9033203125, 29053.421875, 8595.83203125, 6853.5361328125, 17674.955078125, 3873.57958984375, 0.0, 0.1300000101327896, -0.04800000041723251, 0.9940000176429749, 192.0, 0.0, 0.0, 0.0, 0.0, 0.0, 0.0, 0.0, 0.0, 0.0, 1.5977656509293027E9, 2020-08-18 08:47:30.929
5.0, 4641.02685546875, 15460.4326171875, 29040.546875, 8576.7890625, 6845.86962890625, 17663.779296875, 3867.835205078125, 0.0, 0.1300000101327896, -0.04800000041723251, 0.9940000176429749, 192.0, 0.0, 0.0, 0.0, 0.0, 0.0, 0.0, 0.0, 0.0, 0.0, 1.5977656509293792E9, 2020-08-18 08:47:30.929
6.0, 4634.54443359375, 15453.7275390625, 29034.646484375, 8564.7412109375, 6839.0078125, 17652.826171875, 3860.19091796875, 0.0, 0.1300000101327896, -0.04800000041723251, 0.9940000176429749, 192.0, 0.0, 0.0, 0.0, 0.0, 0.0, 0.0, 0.0, 0.0, 0.0, 1.597765650929566E9, 2020-08-18 08:47:30.929
7.0, 4631.7060546875, 15449.9501953125, 29031.740234375, 8573.97265625, 6838.3818359375, 17655.41796875, 3859.2744140625, 0.0, 0.13199999928474426, -0.04400000348687172, 0.9940000176429749, 192.0, 4.0, 32.0, 254.0, 160.0, 31.0, 16.0, 0.0, 0.0, 0.0, 1.5977656509295807E9, 2020-08-18 08:47:30.929
8.0, 4629.11328125, 15444.451171875, 29029.751953125, 8577.4365234375, 6835.07373046875, 17660.1796875, 3860.66015625, 0.0, 0.13199999928474426, -0.04400000348687172, 0.9940000176429749, 192.0, 0.0, 0.0, 0.0, 0.0, 0.0, 0.0, 0.0, 0.0, 0.0, 1.5977656509295957E9, 2020-08-18 08:47:30.929
9.0, 4626.34130859375, 15445.8369140625, 29019.11328125, 8563.5341796875, 6830.87158203125, 17657.228515625, 3859.16259765625, 0.0, 0.13199999928474426, -0.04400000348687172, 0.9940000176429749, 192.0, 0.0, 0.0, 0.0, 0.0, 0.0, 0.0, 0.0, 0.0, 0.0, 1.5977656509296155E9, 2020-08-18 08:47:30.929
10.0, 4618.048828125, 15444.5859375, 29013.033203125, 8553.7216796875, 6824.09912109375, 17644.578125, 3849.707763671875, 0.0, 0.13199999928474426, -0.04400000348687172, 0.9940000176429749, 192.0, 0.0, 0.0, 0.0, 0.0, 0.0, 0.0, 0.0, 0.0, 0.0, 1.5977656509296403E9, 2020-08-18 08:47:30.929
11.0, 4623.36865234375, 15448.966796875, 29031.65234375, 8575.6484375, 6833.21875, 17648.9140625, 3853.57470703125, 0.0, 0.13199999928474426, -0.04400000348687172, 0.9940000176429749, 192.0, 0.0, 0.0, 0.0, 0.0, 0.0, 0.0, 0.0, 0.0, 0.0, 1.5977656509296665E9, 2020-08-18 08:47:30.929
12.0, 4632.75634765625, 15454.1298828125, 29048.6171875, 8592.1669921875, 6845.802734375, 17662.638671875, 3861.0849609375, 0.0, 0.13199999928474426, -0.04400000348687172, 0.9940000176429749, 192.0, 0.0, 0.0, 0.0, 0.0, 0.0, 0.0, 0.0, 0.0, 0.0, 1.5977656509296865E9, 2020-08-18 08:47:30.929
13.0, 4633.38232421875, 15450.888671875, 29035.919921875, 8574.8662109375, 6840.63916015625, 17659.46484375, 3859.833251953125, 0.0, 0.13199999928474426, -0.04400000348687172, 0.9940000176429749, 192.0, 0.0, 0.0, 0.0, 0.0, 0.0, 0.0, 0.0, 0.0, 0.0, 1.5977656509297016E9, 2020-08-18 08:47:30.929
14.0, 4624.97802734375, 15444.8984375, 29022.509765625, 8563.19921875, 6830.93896484375, 17647.05859375, 3850.57958984375, 0.0, 0.13199999928474426, -0.04400000348687172, 0.9940000176429749, 192.0, 0.0, 0.0, 0.0, 0.0, 0.0, 0.0, 0.0, 0.0, 0.0, 1.5977656509297223E9, 2020-08-18 08:47:30.929
15.0, 4622.921875, 15441.8583984375, 29028.58984375, 8570.4404296875, 6831.162109375, 17649.294921875, 3854.37939453125, 0.0, 0.13199999928474426, -0.04400000348687172, 0.9940000176429749, 192.0, 0.0, 0.0, 0.0, 0.0, 0.0, 0.0, 0.0, 0.0, 0.0, 1.5977656509297369E9, 2020-08-18 08:47:30.929
16.0, 4625.00048828125, 15448.2734375, 29043.38671875, 8579.3369140625, 6843.232421875, 17659.15234375, 3860.928466796875, 0.0, 0.13199999928474426, -0.04400000348687172, 0.9940000176429749, 192.0, 0.0, 0.0, 0.0, 0.0, 0.0, 0.0, 0.0, 0.0, 0.0, 1.5977656509297512E9, 2020-08-18 08:47:30.929
17.0, 4630.16357421875, 15454.7998046875, 29035.67578125, 8577.302734375, 6843.63427734375, 17661.095703125, 3859.76611328125, 0.0, 0.12800000607967377, -0.04200000315904617, 0.9920000433921814, 192.0, 4.0, 0.0, 254.0, 176.0, 31.0, 0.0, 0.0, 0.0, 0.0, 1.5977656509297805E9, 2020-08-18 08:47:30.929
18.0, 4627.8837890625, 15447.8037109375, 29014.775390625, 8562.86328125, 6830.93896484375, 17650.14453125, 3855.407470703125, 0.0, 0.12800000607967377, -0.04200000315904617, 0.9920000433921814, 192.0, 0.0, 0.0, 0.0, 0.0, 0.0, 0.0, 0.0, 0.0, 0.0, 1.5977656509297943E9, 2020-08-18 08:47:30.929
19.0, 4625.62646484375, 15442.126953125, 29019.314453125, 8571.2451171875, 6833.84423828125, 17648.244140625, 3856.413330078125, 0.0, 0.12800000607967377, -0.04200000315904617, 0.9920000433921814, 192.0, 0.0, 0.0, 0.0, 0.0, 0.0, 0.0, 0.0, 0.0, 0.0, 1.5977656509298098E9, 2020-08-18 08:47:30.929
20.0, 4628.80029296875, 15443.9599609375, 29028.052734375, 8583.7626953125, 6839.4326171875, 17658.81640625, 3863.543701171875, 0.0, 0.12800000607967377, -0.04200000315904617, 0.9920000433921814, 192.0, 0.0, 0.0, 0.0, 0.0, 0.0, 0.0, 0.0, 0.0, 0.0, 1.5977656509298253E9, 2020-08-18 08:47:30.929
21.0, 4627.90625, 15449.3017578125, 29023.984375, 8579.26953125, 6841.44384765625, 17662.1015625, 3862.58251953125, 0.0, 0.12800000607967377, -0.04200000315904617, 0.9920000433921814, 192.0, 0.0, 0.0, 0.0, 0.0, 0.0, 0.0, 0.0, 0.0, 0.0, 1.59776565092984E9, 2020-08-18 08:47:30.929
22.0, 4622.2509765625, 15445.814453125, 29016.876953125, 8562.193359375, 6828.9716796875, 17649.25, 3854.714599609375, 0.0, 0.12800000607967377, -0.04200000315904617, 0.9920000433921814, 192.0, 0.0, 0.0, 0.0, 0.0, 0.0, 0.0, 0.0, 0.0, 0.0, 1.5977656509298549E9, 2020-08-18 08:47:30.929
23.0, 4622.63134765625, 15445.814453125, 29022.93359375, 8571.2451171875, 6831.85498046875, 17647.05859375, 3856.18994140625, 0.0, 0.12800000607967377, -0.04200000315904617, 0.9920000433921814, 192.0, 0.0, 0.0, 0.0, 0.0, 0.0, 0.0, 0.0, 0.0, 0.0, 1.5977656509298697E9, 2020-08-18 08:47:30.929
24.0, 4623.3017578125, 15447.759765625, 29035.919921875, 8585.5283203125, 6841.7568359375, 17655.26171875, 3860.97314453125, 0.0, 0.12800000607967377, -0.04200000315904617, 0.9920000433921814, 192.0, 0.0, 0.0, 0.0, 0.0, 0.0, 0.0, 0.0, 0.0, 0.0, 1.597765650929884E9, 2020-08-18 08:47:30.929
25.0, 4627.056640625, 15447.0888671875, 29027.181640625, 8573.369140625, 6838.67236328125, 17655.798828125, 3860.0791015625, 0.0, 0.12800000607967377, -0.04200000315904617, 0.9920000433921814, 192.0, 0.0, 0.0, 0.0, 0.0, 0.0, 0.0, 0.0, 0.0, 0.0, 1.5977656509298987E9, 2020-08-18 08:47:30.929
26.0, 4620.6865234375, 15439.8466796875, 29012.40625, 8558.1474609375, 6830.04443359375, 17645.740234375, 3851.920654296875, 0.0, 0.12800000607967377, -0.04200000315904617, 0.9920000433921814, 192.0, 0.0, 0.0, 0.0, 0.0, 0.0, 0.0, 0.0, 0.0, 0.0, 1.5977656509299133E9, 2020-08-18 08:47:30.929
27.0, 4623.7265625, 15441.3671875, 29010.751953125, 8559.3544921875, 6830.759765625, 17644.01953125, 3852.30078125, 0.0, 0.1300000101327896, -0.04200000315904617, 0.9920000433921814, 192.0, 4.0, 16.0, 254.0, 176.0, 31.0, 0.0, 0.0, 0.0, 0.0, 1.597765650929928E9, 2020-08-18 08:47:30.929
28.0, 4626.00634765625, 15440.16015625, 29018.7109375, 8572.474609375, 6834.64892578125, 17649.33984375, 3855.519287109375, 0.0, 0.1300000101327896, -0.04200000315904617, 0.9920000433921814, 192.0, 0.0, 0.0, 0.0, 0.0, 0.0, 0.0, 0.0, 0.0, 0.0, 1.5977656509299428E9, 2020-08-18 08:47:30.929
29.0, 4625.22412109375, 15446.216796875, 29028.5, 8578.4423828125, 6840.84033203125, 17658.302734375, 3860.2802734375, 0.0, 0.1300000101327896, -0.04200000315904617, 0.9920000433921814, 192.0, 0.0, 0.0, 0.0, 0.0, 0.0, 0.0, 0.0, 0.0, 0.0, 1.597765650929957E9, 2020-08-18 08:47:30.929
30.0, 4620.26171875, 15442.57421875, 29005.27734375, 8558.1923828125, 6830.603515625, 17647.1484375, 3852.926513671875, 0.0, 0.1300000101327896, -0.04200000315904617, 0.9920000433921814, 192.0, 0.0, 0.0, 0.0, 0.0, 0.0, 0.0, 0.0, 0.0, 0.0, 1.5977656509299717E9, 2020-08-18 08:47:30.929
31.0, 4612.03662109375, 15432.7841796875, 29000.91796875, 8549.4521484375, 6820.5673828125, 17632.28515625, 3841.415283203125, 0.0, 0.1300000101327896, -0.04200000315904617, 0.9920000433921814, 192.0, 0.0, 0.0, 0.0, 0.0, 0.0, 0.0, 0.0, 0.0, 0.0, 1.597765650929986E9, 2020-08-18 08:47:30.929
32.0, 4605.8896484375, 15427.8212890625, 29010.708984375, 8560.2265625, 6821.10400390625, 17632.41796875, 3839.739013671875, 0.0, 0.1300000101327896, -0.04200000315904617, 0.9920000433921814, 192.0, 0.0, 0.0, 0.0, 0.0, 0.0, 0.0, 0.0, 0.0, 0.0, 1.5977656509300008E9, 2020-08-18 08:47:30.930
33.0, 4614.76318359375, 15435.779296875, 29016.69921875, 8573.6591796875, 6830.93896484375, 17646.052734375, 3848.545654296875, 0.0, 0.1300000101327896, -0.04200000315904617, 0.9920000433921814, 192.0, 0.0, 0.0, 0.0, 0.0, 0.0, 0.0, 0.0, 0.0, 0.0, 1.597765650930015E9, 2020-08-18 08:47:30.930
34.0, 4617.2890625, 15438.39453125, 29015.6484375, 8570.5751953125, 6829.0390625, 17644.599609375, 3850.78076171875, 0.0, 0.1300000101327896, -0.04200000315904617, 0.9920000433921814, 192.0, 0.0, 0.0, 0.0, 0.0, 0.0, 0.0, 0.0, 0.0, 0.0, 1.5977656509300294E9, 2020-08-18 08:47:30.930
35.0, 4614.58447265625, 15435.376953125, 29016.720703125, 8561.701171875, 6820.9697265625, 17636.822265625, 3845.036376953125, 0.0, 0.1300000101327896, -0.04200000315904617, 0.9920000433921814, 192.0, 0.0, 0.0, 0.0, 0.0, 0.0, 0.0, 0.0, 0.0, 0.0, 1.5977656509300437E9, 2020-08-18 08:47:30.930
36.0, 4613.17626953125, 15431.7783203125, 29022.197265625, 8561.8134765625, 6819.583984375, 17635.123046875, 3844.56689453125, 0.0, 0.1300000101327896, -0.04200000315904617, 0.9920000433921814, 192.0, 0.0, 0.0, 0.0, 0.0, 0.0, 0.0, 0.0, 0.0, 0.0, 1.597765650930058E9, 2020-08-18 08:47:30.930
37.0, 4617.736328125, 15433.8564453125, 29018.642578125, 8570.6416015625, 6824.3896484375, 17644.17578125, 3850.445556640625, 0.0, 0.12400000542402267, -0.04800000041723251, 0.9960000514984131, 192.0, 3.0, 224.0, 254.0, 128.0, 31.0, 32.0, 0.0, 0.0, 0.0, 1.5977656509300723E9, 2020-08-18 08:47:30.930
38.0, 4612.97509765625, 15431.62109375, 29005.34375, 8549.966796875, 6821.28271484375, 17639.1015625, 3843.896484375, 0.0, 0.12400000542402267, -0.04800000041723251, 0.9960000514984131, 192.0, 0.0, 0.0, 0.0, 0.0, 0.0, 0.0, 0.0, 0.0, 0.0, 1.597765650930092E9, 2020-08-18 08:47:30.930
39.0, 4613.37744140625, 15434.3486328125, 28991.9765625, 8545.6083984375, 6821.8193359375, 17634.876953125, 3841.1025390625, 0.0, 0.12400000542402267, -0.04800000041723251, 0.9960000514984131, 192.0, 0.0, 0.0, 0.0, 0.0, 0.0, 0.0, 0.0, 0.0, 0.0, 1.597765650930107E9, 2020-08-18 08:47:30.930
40.0, 4610.40478515625, 15431.0625, 28999.3984375, 8553.8330078125, 6826.021484375, 17636.822265625, 3841.437744140625, 0.0, 0.12400000542402267, -0.04800000041723251, 0.9960000514984131, 192.0, 0.0, 0.0, 0.0, 0.0, 0.0, 0.0, 0.0, 0.0, 0.0, 1.5977656509301317E9, 2020-08-18 08:47:30.930
41.0, 4610.5166015625, 15431.1748046875, 29017.748046875, 8566.373046875, 6829.3740234375, 17643.68359375, 3843.6728515625, 0.0, 0.12400000542402267, -0.04800000041723251, 0.9960000514984131, 192.0, 0.0, 0.0, 0.0, 0.0, 0.0, 0.0, 0.0, 0.0, 0.0, 1.597765650930146E9, 2020-08-18 08:47:30.930
42.0, 4613.02001953125, 15433.833984375, 29013.3671875, 8560.2265625, 6826.87060546875, 17640.734375, 3843.0693359375, 0.0, 0.12400000542402267, -0.04800000041723251, 0.9960000514984131, 192.0, 0.0, 0.0, 0.0, 0.0, 0.0, 0.0, 0.0, 0.0, 0.0, 1.5977656509301603E9, 2020-08-18 08:47:30.930
43.0, 4612.95263671875, 15435.779296875, 29007.712890625, 8550.1455078125, 6823.24951171875, 17635.212890625, 3843.337646484375, 0.0, 0.12400000542402267, -0.04800000041723251, 0.9960000514984131, 192.0, 0.0, 0.0, 0.0, 0.0, 0.0, 0.0, 0.0, 0.0, 0.0, 1.5977656509301748E9, 2020-08-18 08:47:30.930
44.0, 4618.00439453125, 15435.9130859375, 29008.673828125, 8560.3603515625, 6828.27880859375, 17639.68359375, 3849.6630859375, 0.0, 0.12400000542402267, -0.04800000041723251, 0.9960000514984131, 192.0, 0.0, 0.0, 0.0, 0.0, 0.0, 0.0, 0.0, 0.0, 0.0, 1.5977656509301891E9, 2020-08-18 08:47:30.930
45.0, 4618.76416015625, 15437.142578125, 29023.60546875, 8580.029296875, 6836.30322265625, 17648.66796875, 3855.072265625, 0.0, 0.12400000542402267, -0.04800000041723251, 0.9960000514984131, 192.0, 0.0, 0.0, 0.0, 0.0, 0.0, 0.0, 0.0, 0.0, 0.0, 1.5977656509302037E9, 2020-08-18 08:47:30.930
46.0, 4615.880859375, 15435.0185546875, 29017.234375, 8567.490234375, 6829.552734375, 17643.7734375, 3847.517333984375, 0.0, 0.12400000542402267, -0.04800000041723251, 0.9960000514984131, 192.0, 0.0, 0.0, 0.0, 0.0, 0.0, 0.0, 0.0, 0.0, 0.0, 1.597765650930218E9, 2020-08-18 08:47:30.930
47.0, 4611.81298828125, 15432.8505859375, 28999.755859375, 8550.927734375, 6821.12646484375, 17635.50390625, 3845.19287109375, 0.0, 0.12600000202655792, -0.04800000041723251, 0.9980000257492065, 192.0, 3.0, 240.0, 254.0, 128.0, 31.0, 48.0, 0.0, 0.0, 0.0, 1.5977656509302323E9, 2020-08-18 08:47:30.930
48.0, 4612.34912109375, 15429.4755859375, 28996.314453125, 8558.080078125, 6819.583984375, 17632.462890625, 3845.6845703125, 0.0, 0.12600000202655792, -0.04800000041723251, 0.9980000257492065, 192.0, 0.0, 0.0, 0.0, 0.0, 0.0, 0.0, 0.0, 0.0, 0.0, 1.5977656509302464E9, 2020-08-18 08:47:30.930
49.0, 4611.25390625, 15425.8095703125, 29001.25390625, 8567.1328125, 6824.412109375, 17638.20703125, 3845.4833984375, 0.0, 0.12600000202655792, -0.04800000041723251, 0.9980000257492065, 192.0, 0.0, 0.0, 0.0, 0.0, 0.0, 0.0, 0.0, 0.0, 0.0, 1.5977656509302607E9, 2020-08-18 08:47:30.930
50.0, 4608.125, 15425.921875, 29002.125, 8562.1484375, 6823.51806640625, 17639.080078125, 3841.325927734375, 0.0, 0.12600000202655792, -0.04800000041723251, 0.9980000257492065, 192.0, 0.0, 0.0, 0.0, 0.0, 0.0, 0.0, 0.0, 0.0, 0.0, 1.5977656509302747E9, 2020-08-18 08:47:30.930
51.0, 4612.1259765625, 15431.107421875, 28994.8828125, 8547.9326171875, 6821.72998046875, 17634.83203125, 3841.348388671875, 0.0, 0.12600000202655792, -0.04800000041723251, 0.9980000257492065, 192.0, 0.0, 0.0, 0.0, 0.0, 0.0, 0.0, 0.0, 0.0, 0.0, 1.5977656509302893E9, 2020-08-18 08:47:30.930
52.0, 4612.39404296875, 15429.0283203125, 28989.228515625, 8546.033203125, 6819.4052734375, 17627.546875, 3841.68359375, 0.0, 0.12600000202655792, -0.04800000041723251, 0.9980000257492065, 192.0, 0.0, 0.0, 0.0, 0.0, 0.0, 0.0, 0.0, 0.0, 0.0, 1.5977656509303036E9, 2020-08-18 08:47:30.930
53.0, 4611.298828125, 15427.8662109375, 29003.95703125, 8568.2724609375, 6825.12744140625, 17636.0390625, 3847.316162109375, 0.0, 0.12600000202655792, -0.04800000041723251, 0.9980000257492065, 192.0, 0.0, 0.0, 0.0, 0.0, 0.0, 0.0, 0.0, 0.0, 0.0, 1.597765650930318E9, 2020-08-18 08:47:30.930
54.0, 4611.61181640625, 15429.408203125, 29011.625, 8574.486328125, 6829.30712890625, 17646.322265625, 3851.652587890625, 0.0, 0.12600000202655792, -0.04800000041723251, 0.9980000257492065, 192.0, 0.0, 0.0, 0.0, 0.0, 0.0, 0.0, 0.0, 0.0, 0.0, 1.5977656509303322E9, 2020-08-18 08:47:30.930
55.0, 4609.80126953125, 15429.810546875, 29004.47265625, 8555.2412109375, 6820.9921875, 17635.59375, 3841.124755859375, 0.0, 0.12600000202655792, -0.04800000041723251, 0.9980000257492065, 192.0, 0.0, 0.0, 0.0, 0.0, 0.0, 0.0, 0.0, 0.0, 0.0, 1.5977656509303465E9, 2020-08-18 08:47:30.930
56.0, 4612.23779296875, 15427.44140625, 28994.48046875, 8543.8203125, 6822.86962890625, 17630.630859375, 3840.07421875, 0.0, 0.13199999928474426, -0.046000003814697266, 1.0, 192.0, 4.0, 32.0, 254.0, 144.0, 31.0, 64.0, 0.0, 0.0, 0.0, 1.5977656509303608E9, 2020-08-18 08:47:30.930
57.0, 4612.3046875, 15424.423828125, 28998.548828125, 8554.9736328125, 6824.14404296875, 17636.486328125, 3845.706787109375, 0.0, 0.13199999928474426, -0.046000003814697266, 1.0, 192.0, 0.0, 0.0, 0.0, 0.0, 0.0, 0.0, 0.0, 0.0, 0.0, 1.597765650930375E9, 2020-08-18 08:47:30.930
58.0, 4617.22216796875, 15432.6943359375, 29015.044921875, 8573.435546875, 6833.1513671875, 17647.70703125, 3852.121826171875, 0.0, 0.13199999928474426, -0.046000003814697266, 1.0, 192.0, 0.0, 0.0, 0.0, 0.0, 0.0, 0.0, 0.0, 0.0, 0.0, 1.5977656509303894E9, 2020-08-18 08:47:30.930
59.0, 4618.5185546875, 15433.4091796875, 29003.421875, 8560.7177734375, 6829.1953125, 17640.5546875, 3847.427978515625, 0.0, 0.13199999928474426, -0.046000003814697266, 1.0, 192.0, 0.0, 0.0, 0.0, 0.0, 0.0, 0.0, 0.0, 0.0, 0.0, 1.5977656509304032E9, 2020-08-18 08:47:30.930
60.0, 4621.75927734375, 15427.0166015625, 28980.80078125, 8540.556640625, 6818.91357421875, 17624.88671875, 3840.96826171875, 0.0, 0.13199999928474426, -0.046000003814697266, 1.0, 192.0, 0.0, 0.0, 0.0, 0.0, 0.0, 0.0, 0.0, 0.0, 0.0, 1.597765650930418E9, 2020-08-18 08:47:30.930
61.0, 4619.6806640625, 15423.5751953125, 28986.76953125, 8549.966796875, 6819.1591796875, 17630.36328125, 3851.831298828125, 0.0, 0.13199999928474426, -0.046000003814697266, 1.0, 192.0, 0.0, 0.0, 0.0, 0.0, 0.0, 0.0, 0.0, 0.0, 0.0, 1.5977656509304328E9, 2020-08-18 08:47:30.930
62.0, 4596.05517578125, 15414.9921875, 28999.21875, 8562.103515625, 6814.86767578125, 17631.591796875, 3845.125732421875, 0.0, 0.13199999928474426, -0.046000003814697266, 1.0, 192.0, 0.0, 0.0, 0.0, 0.0, 0.0, 0.0, 0.0, 0.0, 0.0, 1.5977656509304476E9, 2020-08-18 08:47:30.930
63.0, 4597.82080078125, 15420.1328125, 28993.765625, 8551.84375, 6815.806640625, 17633.3125, 3841.59423828125, 0.0, 0.13199999928474426, -0.046000003814697266, 1.0, 192.0, 0.0, 0.0, 0.0, 0.0, 0.0, 0.0, 0.0, 0.0, 0.0, 1.5977656509304624E9, 2020-08-18 08:47:30.930
64.0, 4607.20849609375, 15427.93359375, 28987.171875, 8546.3232421875, 6822.1767578125, 17632.865234375, 3844.231689453125, 0.0, 0.13199999928474426, -0.046000003814697266, 1.0, 192.0, 0.0, 0.0, 0.0, 0.0, 0.0, 0.0, 0.0, 0.0, 0.0, 1.5977656509304845E9, 2020-08-18 08:47:30.930
65.0, 4610.80712890625, 15431.0625, 29001.5, 8564.025390625, 6831.14013671875, 17638.498046875, 3850.713623046875, 0.0, 0.13199999928474426, -0.046000003814697266, 1.0, 192.0, 0.0, 0.0, 0.0, 0.0, 0.0, 0.0, 0.0, 0.0, 0.0, 1.5977656509304993E9, 2020-08-18 08:47:30.930
66.0, 4613.6904296875, 15437.7685546875, 29014.41796875, 8581.5947265625, 6845.08740234375, 17656.0, 3865.0859375, 0.0, 0.1300000101327896, -0.05400000140070915, 0.9960000514984131, 192.0, 4.0, 16.0, 254.0, 80.0, 31.0, 32.0, 0.0, 0.0, 0.0, 1.597765650930514E9, 2020-08-18 08:47:30.930
67.0, 4613.265625, 15443.0205078125, 29008.96484375, 8577.548828125, 6847.1884765625, 17661.767578125, 3867.499755859375, 0.0, 0.1300000101327896, -0.05400000140070915, 0.9960000514984131, 192.0, 0.0, 0.0, 0.0, 0.0, 0.0, 0.0, 0.0, 0.0, 0.0, 1.5977656509305282E9, 2020-08-18 08:47:30.930
68.0, 4607.4990234375, 15436.896484375, 29001.3203125, 8568.853515625, 6837.30908203125, 17651.595703125, 3862.627197265625, 0.0, 0.1300000101327896, -0.05400000140070915, 0.9960000514984131, 192.0, 0.0, 0.0, 0.0, 0.0, 0.0, 0.0, 0.0, 0.0, 0.0, 1.5977656509305427E9, 2020-08-18 08:47:30.930
69.0, 4596.748046875, 15422.5244140625, 28997.341796875, 8562.751953125, 6822.7802734375, 17635.771484375, 3850.713623046875, 0.0, 0.1300000101327896, -0.05400000140070915, 0.9960000514984131, 192.0, 0.0, 0.0, 0.0, 0.0, 0.0, 0.0, 0.0, 0.0, 0.0, 1.5977656509305573E9, 2020-08-18 08:47:30.930
70.0, 4595.541015625, 15422.1220703125, 29003.466796875, 8575.89453125, 6827.630859375, 17642.8125, 3855.2734375, 0.0, 0.1300000101327896, -0.05400000140070915, 0.9960000514984131, 192.0, 0.0, 0.0, 0.0, 0.0, 0.0, 0.0, 0.0, 0.0, 0.0, 1.597765650930572E9, 2020-08-18 08:47:30.930
71.0, 4606.470703125, 15428.044921875, 29001.25390625, 8578.6884765625, 6834.33642578125, 17650.970703125, 3860.056640625, 0.0, 0.1300000101327896, -0.05400000140070915, 0.9960000514984131, 192.0, 0.0, 0.0, 0.0, 0.0, 0.0, 0.0, 0.0, 0.0, 0.0, 1.5977656509305866E9, 2020-08-18 08:47:30.930
72.0, 4604.2578125, 15424.6474609375, 28986.814453125, 8557.6552734375, 6825.52978515625, 17641.181640625, 3854.06640625, 0.0, 0.1300000101327896, -0.05400000140070915, 0.9960000514984131, 192.0, 0.0, 0.0, 0.0, 0.0, 0.0, 0.0, 0.0, 0.0, 0.0, 1.5977656509306047E9, 2020-08-18 08:47:30.930
73.0, 4607.521484375, 15422.2333984375, 28982.298828125, 8554.50390625, 6820.8134765625, 17635.99609375, 3853.351318359375, 0.0, 0.1300000101327896, -0.05400000140070915, 0.9960000514984131, 192.0, 0.0, 0.0, 0.0, 0.0, 0.0, 0.0, 0.0, 0.0, 0.0, 1.5977656509306192E9, 2020-08-18 08:47:30.930
74.0, 4607.3427734375, 15426.48046875, 28997.7890625, 8579.404296875, 6832.90576171875, 17647.126953125, 3858.6708984375, 0.0, 0.1300000101327896, -0.05400000140070915, 0.9960000514984131, 192.0, 0.0, 0.0, 0.0, 0.0, 0.0, 0.0, 0.0, 0.0, 0.0, 1.5977656509306345E9, 2020-08-18 08:47:30.930
75.0, 4609.734375, 15435.197265625, 29005.27734375, 8582.0634765625, 6841.578125, 17655.486328125, 3864.59423828125, 0.0, 0.1300000101327896, -0.05400000140070915, 0.9960000514984131, 192.0, 0.0, 0.0, 0.0, 0.0, 0.0, 0.0, 0.0, 0.0, 0.0, 1.5977656509306488E9, 2020-08-18 08:47:30.930
76.0, 4610.40478515625, 15435.2197265625, 28990.123046875, 8564.00390625, 6834.33642578125, 17647.23828125, 3862.96240234375, 0.0, 0.1340000033378601, -0.05000000074505806, 0.9940000176429749, 192.0, 4.0, 48.0, 254.0, 112.0, 31.0, 16.0, 0.0, 0.0, 0.0, 1.597765650930663E9, 2020-08-18 08:47:30.930
77.0, 4605.5322265625, 15435.0185546875, 28989.228515625, 8561.0302734375, 6831.69873046875, 17638.923828125, 3858.223876953125, 0.0, 0.1340000033378601, -0.05000000074505806, 0.9940000176429749, 192.0, 0.0, 0.0, 0.0, 0.0, 0.0, 0.0, 0.0, 0.0, 0.0, 1.597765650930678E9, 2020-08-18 08:47:30.930
78.0, 4608.326171875, 15435.3544921875, 28998.548828125, 8577.1015625, 6839.0078125, 17647.171875, 3862.15771484375, 0.0, 0.1340000033378601, -0.05000000074505806, 0.9940000176429749, 192.0, 0.0, 0.0, 0.0, 0.0, 0.0, 0.0, 0.0, 0.0, 0.0, 1.597765650930693E9, 2020-08-18 08:47:30.930
79.0, 4603.60986328125, 15430.392578125, 29000.470703125, 8581.7509765625, 6836.99609375, 17648.244140625, 3856.927490234375, 0.0, 0.1340000033378601, -0.05000000074505806, 0.9940000176429749, 192.0, 0.0, 0.0, 0.0, 0.0, 0.0, 0.0, 0.0, 0.0, 0.0, 1.5977656509307072E9, 2020-08-18 08:47:30.930
80.0, 4608.884765625, 15430.056640625, 28993.005859375, 8564.0927734375, 6829.0390625, 17641.560546875, 3854.111083984375, 0.0, 0.1340000033378601, -0.05000000074505806, 0.9940000176429749, 192.0, 0.0, 0.0, 0.0, 0.0, 0.0, 0.0, 0.0, 0.0, 0.0, 1.5977656509307225E9, 2020-08-18 08:47:30.930
81.0, 4602.1123046875, 15419.0595703125, 28979.884765625, 8543.619140625, 6819.31591796875, 17629.87109375, 3848.053955078125, 0.0, 0.1340000033378601, -0.05000000074505806, 0.9940000176429749, 192.0, 0.0, 0.0, 0.0, 0.0, 0.0, 0.0, 0.0, 0.0, 0.0, 1.597765650930737E9, 2020-08-18 08:47:30.930
82.0, 4599.05029296875, 15412.6005859375, 28979.9296875, 8557.3427734375, 6820.0087890625, 17630.921875, 3848.143310546875, 0.0, 0.1340000033378601, -0.05000000074505806, 0.9940000176429749, 192.0, 0.0, 0.0, 0.0, 0.0, 0.0, 0.0, 0.0, 0.0, 0.0, 1.597765650930752E9, 2020-08-18 08:47:30.930
83.0, 4602.64892578125, 15420.8251953125, 28999.443359375, 8579.11328125, 6831.87744140625, 17646.208984375, 3859.05078125, 0.0, 0.1340000033378601, -0.05000000074505806, 0.9940000176429749, 192.0, 0.0, 0.0, 0.0, 0.0, 0.0, 0.0, 0.0, 0.0, 0.0, 1.5977656509307663E9, 2020-08-18 08:47:30.930
84.0, 4602.4921875, 15426.435546875, 28992.603515625, 8562.349609375, 6828.994140625, 17646.76953125, 3858.425048828125, 0.0, 0.1340000033378601, -0.05000000074505806, 0.9940000176429749, 192.0, 0.0, 0.0, 0.0, 0.0, 0.0, 0.0, 0.0, 0.0, 0.0, 1.597765650930781E9, 2020-08-18 08:47:30.930
85.0, 4605.82275390625, 15428.7158203125, 28975.75, 8549.4306640625, 6824.7919921875, 17639.169921875, 3855.742919921875, 0.0, 0.1340000033378601, -0.05000000074505806, 0.9940000176429749, 192.0, 0.0, 0.0, 0.0, 0.0, 0.0, 0.0, 0.0, 0.0, 0.0, 1.597765650930795E9, 2020-08-18 08:47:30.930
86.0, 4604.50390625, 15429.005859375, 28989.205078125, 8567.22265625, 6833.84423828125, 17640.935546875, 3858.134521484375, 0.0, 0.1300000101327896, -0.046000003814697266, 0.9980000257492065, 192.0, 4.0, 16.0, 254.0, 144.0, 31.0, 48.0, 0.0, 0.0, 0.0, 1.5977656509308095E9, 2020-08-18 08:47:30.930
87.0, 4605.46484375, 15423.8203125, 28997.87890625, 8579.0908203125, 6833.50927734375, 17646.322265625, 3860.414306640625, 0.0, 0.1300000101327896, -0.046000003814697266, 0.9980000257492065, 192.0, 0.0, 0.0, 0.0, 0.0, 0.0, 0.0, 0.0, 0.0, 0.0, 1.5977656509308312E9, 2020-08-18 08:47:30.930
88.0, 4607.4541015625, 15423.216796875, 28989.384765625, 8566.841796875, 6825.68603515625, 17640.779296875, 3852.18896484375, 0.0, 0.1300000101327896, -0.046000003814697266, 0.9980000257492065, 192.0, 0.0, 0.0, 0.0, 0.0, 0.0, 0.0, 0.0, 0.0, 0.0, 1.5977656509308455E9, 2020-08-18 08:47:30.930
89.0, 4606.82861328125, 15424.357421875, 28978.208984375, 8557.0078125, 6823.4287109375, 17636.0390625, 3851.58544921875, 0.0, 0.1300000101327896, -0.046000003814697266, 0.9980000257492065, 192.0, 0.0, 0.0, 0.0, 0.0, 0.0, 0.0, 0.0, 0.0, 0.0, 1.5977656509308598E9, 2020-08-18 08:47:30.930
90.0, 4607.677734375, 15422.0771484375, 28978.990234375, 8560.94140625, 6827.5634765625, 17639.19140625, 3856.838134765625, 0.0, 0.1300000101327896, -0.046000003814697266, 0.9980000257492065, 192.0, 0.0, 0.0, 0.0, 0.0, 0.0, 0.0, 0.0, 0.0, 0.0, 1.597765650930874E9, 2020-08-18 08:47:30.930
91.0, 4611.1201171875, 15426.3466796875, 28988.9375, 8576.38671875, 6837.6220703125, 17651.193359375, 3866.98583984375, 0.0, 0.1300000101327896, -0.046000003814697266, 0.9980000257492065, 192.0, 0.0, 0.0, 0.0, 0.0, 0.0, 0.0, 0.0, 0.0, 0.0, 1.597765650930889E9, 2020-08-18 08:47:30.930
92.0, 4614.271484375, 15431.95703125, 28992.759765625, 8571.9609375, 6836.88427734375, 17654.435546875, 3868.326904296875, 0.0, 0.1300000101327896, -0.046000003814697266, 0.9980000257492065, 192.0, 0.0, 0.0, 0.0, 0.0, 0.0, 0.0, 0.0, 0.0, 0.0, 1.5977656509309032E9, 2020-08-18 08:47:30.930
93.0, 4608.4599609375, 15426.2568359375, 28977.404296875, 8557.611328125, 6825.619140625, 17638.72265625, 3857.910888671875, 0.0, 0.1300000101327896, -0.046000003814697266, 0.9980000257492065, 192.0, 0.0, 0.0, 0.0, 0.0, 0.0, 0.0, 0.0, 0.0, 0.0, 1.5977656509309177E9, 2020-08-18 08:47:30.930
94.0, 4604.75, 15424.625, 28978.7890625, 8570.2177734375, 6828.837890625, 17636.197265625, 3857.19580078125, 0.0, 0.1300000101327896, -0.046000003814697266, 0.9980000257492065, 192.0, 0.0, 0.0, 0.0, 0.0, 0.0, 0.0, 0.0, 0.0, 0.0, 1.5977656509309318E9, 2020-08-18 08:47:30.930
95.0, 4608.1025390625, 15429.140625, 28996.984375, 8588.1884765625, 6841.28759765625, 17649.607421875, 3864.906982421875, 0.0, 0.1300000101327896, -0.046000003814697266, 0.9980000257492065, 192.0, 0.0, 0.0, 0.0, 0.0, 0.0, 0.0, 0.0, 0.0, 0.0, 1.597765650930946E9, 2020-08-18 08:47:30.930
96.0, 4615.4560546875, 15432.068359375, 28994.861328125, 8577.66015625, 6840.9970703125, 17651.75390625, 3863.36474609375, 0.0, 0.1340000033378601, -0.04800000041723251, 1.002000093460083, 192.0, 4.0, 48.0, 254.0, 128.0, 31.0, 80.0, 0.0, 0.0, 0.0, 1.5977656509309602E9, 2020-08-18 08:47:30.930
97.0, 4615.16552734375, 15429.609375, 28983.4609375, 8557.923828125, 6832.52587890625, 17642.298828125, 3858.112060546875, 0.0, 0.1340000033378601, -0.04800000041723251, 1.002000093460083, 192.0, 0.0, 0.0, 0.0, 0.0, 0.0, 0.0, 0.0, 0.0, 0.0, 1.5977656509309745E9, 2020-08-18 08:47:30.930
98.0, 4612.95263671875, 15423.552734375, 28979.83984375, 8558.416015625, 6826.982421875, 17635.212890625, 3855.027587890625, 0.0, 0.1340000033378601, -0.04800000041723251, 1.002000093460083, 192.0, 0.0, 0.0, 0.0, 0.0, 0.0, 0.0, 0.0, 0.0, 0.0, 1.5977656509309893E9, 2020-08-18 08:47:30.930
99.0, 4612.1259765625, 15420.2216796875, 28985.830078125, 8565.2109375, 6828.79296875, 17638.095703125, 3859.16259765625, 0.0, 0.1340000033378601, -0.04800000041723251, 1.002000093460083, 192.0, 0.0, 0.0, 0.0, 0.0, 0.0, 0.0, 0.0, 0.0, 0.0, 1.597765650931006E9, 2020-08-18 08:47:30.931
100.0, 4613.24365234375, 15424.1337890625, 28984.892578125, 8561.7685546875, 6830.11181640625, 17644.35546875, 3864.39306640625, 0.0, 0.1340000033378601, -0.04800000041723251, 1.002000093460083, 192.0, 0.0, 0.0, 0.0, 0.0, 0.0, 0.0, 0.0, 0.0, 0.0, 1.5977656509310205E9, 2020-08-18 08:47:30.931
101.0, 4612.37158203125, 15423.7763671875, 28970.140625, 8557.208984375, 6828.2119140625, 17640.62109375, 3861.844970703125, 0.0, 0.1340000033378601, -0.04800000041723251, 1.002000093460083, 192.0, 0.0, 0.0, 0.0, 0.0, 0.0, 0.0, 0.0, 0.0, 0.0, 1.5977656509310353E9, 2020-08-18 08:47:30.931
102.0, 4607.923828125, 15420.4228515625, 28967.814453125, 8561.58984375, 6825.9541015625, 17634.20703125, 3857.6875, 0.0, 0.1340000033378601, -0.04800000041723251, 1.002000093460083, 192.0, 0.0, 0.0, 0.0, 0.0, 0.0, 0.0, 0.0, 0.0, 0.0, 1.59776565093105E9, 2020-08-18 08:47:30.931
103.0, 4607.16357421875, 15419.775390625, 28980.353515625, 8581.080078125, 6832.25732421875, 17639.302734375, 3860.123779296875, 0.0, 0.1340000033378601, -0.04800000041723251, 1.002000093460083, 192.0, 0.0, 0.0, 0.0, 0.0, 0.0, 0.0, 0.0, 0.0, 0.0, 1.5977656509310644E9, 2020-08-18 08:47:30.931
104.0, 4612.8857421875, 15424.8935546875, 28988.87109375, 8588.92578125, 6838.5380859375, 17649.96484375, 3867.321044921875, 0.0, 0.1340000033378601, -0.04800000041723251, 1.002000093460083, 192.0, 0.0, 0.0, 0.0, 0.0, 0.0, 0.0, 0.0, 0.0, 0.0, 1.5977656509310791E9, 2020-08-18 08:47:30.931
105.0, 4616.14892578125, 15430.2578125, 28984.935546875, 8576.900390625, 6837.6220703125, 17647.349609375, 3865.15283203125, 0.0, 0.13199999928474426, -0.046000003814697266, 1.0, 192.0, 4.0, 32.0, 254.0, 144.0, 31.0, 64.0, 0.0, 0.0, 0.0, 1.5977656509310935E9, 2020-08-18 08:47:30.931
106.0, 4609.9130859375, 15423.10546875, 28971.5703125, 8560.1142578125, 6824.009765625, 17634.69921875, 3857.37451171875, 0.0, 0.13199999928474426, -0.046000003814697266, 1.0, 192.0, 0.0, 0.0, 0.0, 0.0, 0.0, 0.0, 0.0, 0.0, 0.0, 1.5977656509311075E9, 2020-08-18 08:47:30.931
107.0, 4610.2705078125, 15420.53515625, 28978.923828125, 8569.6357421875, 6828.435546875, 17638.029296875, 3862.15771484375, 0.0, 0.13199999928474426, -0.046000003814697266, 1.0, 192.0, 0.0, 0.0, 0.0, 0.0, 0.0, 0.0, 0.0, 0.0, 0.0, 1.597765650931122E9, 2020-08-18 08:47:30.931
108.0, 4618.294921875, 15426.9052734375, 28991.015625, 8581.5947265625, 6841.73486328125, 17653.09375, 3872.842041015625, 0.0, 0.13199999928474426, -0.046000003814697266, 1.0, 192.0, 0.0, 0.0, 0.0, 0.0, 0.0, 0.0, 0.0, 0.0, 0.0, 1.5977656509311364E9, 2020-08-18 08:47:30.931
109.0, 4614.56201171875, 15424.1337890625, 28981.115234375, 8564.427734375, 6832.212890625, 17646.634765625, 3867.16455078125, 0.0, 0.13199999928474426, -0.046000003814697266, 1.0, 192.0, 0.0, 0.0, 0.0, 0.0, 0.0, 0.0, 0.0, 0.0, 0.0, 1.5977656509311512E9, 2020-08-18 08:47:30.931
110.0, 4609.2646484375, 15418.27734375, 28964.216796875, 8554.0791015625, 6822.66845703125, 17633.693359375, 3858.15673828125, 0.0, 0.13199999928474426, -0.046000003814697266, 1.0, 192.0, 0.0, 0.0, 0.0, 0.0, 0.0, 0.0, 0.0, 0.0, 0.0, 1.5977656509311733E9, 2020-08-18 08:47:30.931
111.0, 4603.43115234375, 15414.1650390625, 28960.841796875, 8560.8076171875, 6823.8310546875, 17633.111328125, 3855.6533203125, 0.0, 0.13199999928474426, -0.046000003814697266, 1.0, 192.0, 0.0, 0.0, 0.0, 0.0, 0.0, 0.0, 0.0, 0.0, 0.0, 1.5977656509311883E9, 2020-08-18 08:47:30.931
112.0, 4610.02490234375, 15421.4287109375, 28973.470703125, 8578.2861328125, 6836.45947265625, 17646.791015625, 3864.14697265625, 0.0, 0.13199999928474426, -0.046000003814697266, 1.0, 192.0, 0.0, 0.0, 0.0, 0.0, 0.0, 0.0, 0.0, 0.0, 0.0, 1.597765650931203E9, 2020-08-18 08:47:30.931
113.0, 4609.64501953125, 15423.306640625, 28973.11328125, 8569.79296875, 6835.341796875, 17643.013671875, 3857.95556640625, 0.0, 0.13199999928474426, -0.046000003814697266, 1.0, 192.0, 0.0, 0.0, 0.0, 0.0, 0.0, 0.0, 0.0, 0.0, 0.0, 1.597765650931218E9, 2020-08-18 08:47:30.931
114.0, 4609.689453125, 15421.4287109375, 28963.255859375, 8557.767578125, 6826.7587890625, 17634.140625, 3854.424072265625, 0.0, 0.13199999928474426, -0.046000003814697266, 1.0, 192.0, 0.0, 0.0, 0.0, 0.0, 0.0, 0.0, 0.0, 0.0, 0.0, 1.5977656509312327E9, 2020-08-18 08:47:30.931
115.0, 4611.90234375, 15417.5849609375, 28965.6015625, 8564.830078125, 6825.9765625, 17633.021484375, 3859.16259765625, 0.0, 0.1300000101327896, -0.04200000315904617, 0.9940000176429749, 192.0, 4.0, 16.0, 254.0, 176.0, 31.0, 16.0, 0.0, 0.0, 0.0, 1.5977656509312477E9, 2020-08-18 08:47:30.931
116.0, 4607.6552734375, 15417.875, 28976.2421875, 8584.4111328125, 6833.46435546875, 17641.203125, 3863.342529296875, 0.0, 0.1300000101327896, -0.04200000315904617, 0.9940000176429749, 192.0, 0.0, 0.0, 0.0, 0.0, 0.0, 0.0, 0.0, 0.0, 0.0, 1.5977656509312625E9, 2020-08-18 08:47:30.931
117.0, 4601.486328125, 15414.41015625, 28971.189453125, 8576.1181640625, 6828.3681640625, 17641.986328125, 3860.906005859375, 0.0, 0.1300000101327896, -0.04200000315904617, 0.9940000176429749, 192.0, 0.0, 0.0, 0.0, 0.0, 0.0, 0.0, 0.0, 0.0, 0.0, 1.597765650931278E9, 2020-08-18 08:47:30.931
118.0, 4615.38916015625, 15420.3115234375, 28959.5234375, 8560.9638671875, 6826.423828125, 17641.6953125, 3865.75634765625, 0.0, 0.1300000101327896, -0.04200000315904617, 0.9940000176429749, 192.0, 0.0, 0.0, 0.0, 0.0, 0.0, 0.0, 0.0, 0.0, 0.0, 1.597765650931293E9, 2020-08-18 08:47:30.931
119.0, 4612.57275390625, 15418.43359375, 28961.66796875, 8564.80859375, 6827.5634765625, 17640.0625, 3864.34814453125, 0.0, 0.1300000101327896, -0.04200000315904617, 0.9940000176429749, 192.0, 0.0, 0.0, 0.0, 0.0, 0.0, 0.0, 0.0, 0.0, 0.0, 1.597765650931308E9, 2020-08-18 08:47:30.931
120.0, 4605.82275390625, 15416.421875, 28975.771484375, 8584.09765625, 6832.5703125, 17646.076171875, 3866.829345703125, 0.0, 0.1300000101327896, -0.04200000315904617, 0.9940000176429749, 192.0, 0.0, 0.0, 0.0, 0.0, 0.0, 0.0, 0.0, 0.0, 0.0, 1.597765650931322E9, 2020-08-18 08:47:30.931
121.0, 4610.3154296875, 15428.783203125, 28985.451171875, 8588.5458984375, 6842.94140625, 17654.14453125, 3874.540771484375, 0.0, 0.1300000101327896, -0.04200000315904617, 0.9940000176429749, 192.0, 0.0, 0.0, 0.0, 0.0, 0.0, 0.0, 0.0, 0.0, 0.0, 1.5977656514088504E9, 2020-08-18 08:47:31.408
122.0, 4606.40380859375, 15426.2568359375, 28968.91015625, 8574.5087890625, 6832.6376953125, 17641.42578125, 3861.129638671875, 0.0, 0.1300000101327896, -0.04200000315904617, 0.9940000176429749, 192.0, 0.0, 0.0, 0.0, 0.0, 0.0, 0.0, 0.0, 0.0, 0.0, 1.5977656514089212E9, 2020-08-18 08:47:31.408
123.0, 4607.6552734375, 15423.798828125, 28961.53515625, 8567.84765625, 6831.25146484375, 17633.3125, 3858.425048828125, 0.0, 0.1300000101327896, -0.04200000315904617, 0.9940000176429749, 192.0, 0.0, 0.0, 0.0, 0.0, 0.0, 0.0, 0.0, 0.0, 0.0, 1.5977656514089613E9, 2020-08-18 08:47:31.408
124.0, 4613.2880859375, 15423.2841796875, 28973.89453125, 8573.63671875, 6834.9619140625, 17639.125, 3865.48828125, 0.0, 0.1300000101327896, -0.04200000315904617, 0.9940000176429749, 192.0, 0.0, 0.0, 0.0, 0.0, 0.0, 0.0, 0.0, 0.0, 0.0, 1.5977656514089773E9, 2020-08-18 08:47:31.408
125.0, 4618.25, 15424.4013671875, 28975.638671875, 8575.3359375, 6836.146484375, 17648.556640625, 3871.836181640625, 0.0, 0.1340000033378601, -0.04200000315904617, 0.9900000691413879, 192.0, 4.0, 48.0, 254.0, 176.0, 30.0, 240.0, 0.0, 0.0, 0.0, 1.597765651409008E9, 2020-08-18 08:47:31.409
126.0, 4614.78564453125, 15420.6025390625, 28959.92578125, 8563.3330078125, 6828.32373046875, 17643.505859375, 3869.17626953125, 0.0, 0.1340000033378601, -0.04200000315904617, 0.9900000691413879, 192.0, 0.0, 0.0, 0.0, 0.0, 0.0, 0.0, 0.0, 0.0, 0.0, 1.5977656514090676E9, 2020-08-18 08:47:31.409
127.0, 4605.3310546875, 15412.041015625, 28953.107421875, 8566.619140625, 6821.193359375, 17633.3359375, 3862.046142578125, 0.0, 0.1340000033378601, -0.04200000315904617, 0.9900000691413879, 192.0, 0.0, 0.0, 0.0, 0.0, 0.0, 0.0, 0.0, 0.0, 0.0, 1.5977656514090903E9, 2020-08-18 08:47:31.409
128.0, 4602.1123046875, 15408.8671875, 28968.93359375, 8577.4814453125, 6823.8310546875, 17633.40234375, 3860.101318359375, 0.0, 0.1340000033378601, -0.04200000315904617, 0.9900000691413879, 192.0, 0.0, 0.0, 0.0, 0.0, 0.0, 0.0, 0.0, 0.0, 0.0, 1.597765651409099E9, 2020-08-18 08:47:31.409
129.0, 4607.6552734375, 15414.857421875, 28975.66015625, 8573.7041015625, 6829.10595703125, 17640.8671875, 3863.78955078125, 0.0, 0.1340000033378601, -0.04200000315904617, 0.9900000691413879, 192.0, 0.0, 0.0, 0.0, 0.0, 0.0, 0.0, 0.0, 0.0, 0.0, 1.5977656514091055E9, 2020-08-18 08:47:31.409
130.0, 4606.38134765625, 15414.4326171875, 28961.35546875, 8567.4013671875, 6824.92626953125, 17635.146484375, 3857.642822265625, 0.0, 0.1340000033378601, -0.04200000315904617, 0.9900000691413879, 192.0, 0.0, 0.0, 0.0, 0.0, 0.0, 0.0, 0.0, 0.0, 0.0, 1.5977656514091108E9, 2020-08-18 08:47:31.409
131.0, 4604.302734375, 15415.2373046875, 28950.9609375, 8562.6845703125, 6822.51220703125, 17628.26171875, 3856.033447265625, 0.0, 0.1340000033378601, -0.04200000315904617, 0.9900000691413879, 192.0, 0.0, 0.0, 0.0, 0.0, 0.0, 0.0, 0.0, 0.0, 0.0, 1.5977656514091165E9, 2020-08-18 08:47:31.409
132.0, 4609.130859375, 15419.8642578125, 28964.23828125, 8573.6591796875, 6834.0009765625, 17637.3359375, 3865.734130859375, 0.0, 0.1340000033378601, -0.04200000315904617, 0.9900000691413879, 192.0, 0.0, 0.0, 0.0, 0.0, 0.0, 0.0, 0.0, 0.0, 0.0, 1.597765651409122E9, 2020-08-18 08:47:31.409
133.0, 4611.09765625, 15423.216796875, 28982.12109375, 8585.3720703125, 6840.5498046875, 17645.203125, 3867.142333984375, 0.0, 0.1340000033378601, -0.04200000315904617, 0.9900000691413879, 192.0, 0.0, 0.0, 0.0, 0.0, 0.0, 0.0, 0.0, 0.0, 0.0, 1.5977656514091382E9, 2020-08-18 08:47:31.409
134.0, 4605.8671875, 15420.69140625, 28969.46875, 8573.8603515625, 6830.15625, 17638.38671875, 3858.98388671875, 0.0, 0.1340000033378601, -0.04200000315904617, 0.9900000691413879, 192.0, 0.0, 0.0, 0.0, 0.0, 0.0, 0.0, 0.0, 0.0, 0.0, 1.5977656514091437E9, 2020-08-18 08:47:31.409
135.0, 4603.83349609375, 15415.193359375, 28952.638671875, 8557.029296875, 6820.90283203125, 17627.3671875, 3851.98779296875, 0.0, 0.12800000607967377, -0.04800000041723251, 0.9920000433921814, 192.0, 4.0, 0.0, 254.0, 128.0, 31.0, 0.0, 0.0, 0.0, 0.0, 1.5977656514091487E9, 2020-08-18 08:47:31.409
136.0, 4601.24072265625, 15403.435546875, 28951.3203125, 8556.7841796875, 6815.91845703125, 17621.869140625, 3850.512451171875, 0.0, 0.12800000607967377, -0.04800000041723251, 0.9920000433921814, 192.0, 0.0, 0.0, 0.0, 0.0, 0.0, 0.0, 0.0, 0.0, 0.0, 1.597765651409154E9, 2020-08-18 08:47:31.409
137.0, 4604.5263671875, 15404.5537109375, 28957.935546875, 8567.4677734375, 6820.32177734375, 17635.01171875, 3859.430908203125, 0.0, 0.12800000607967377, -0.04800000041723251, 0.9920000433921814, 192.0, 0.0, 0.0, 0.0, 0.0, 0.0, 0.0, 0.0, 0.0, 0.0, 1.5977656514091587E9, 2020-08-18 08:47:31.409
138.0, 4600.83837890625, 15403.123046875, 28948.212890625, 8569.1220703125, 6815.806640625, 17635.705078125, 3857.531005859375, 0.0, 0.12800000607967377, -0.04800000041723251, 0.9920000433921814, 192.0, 0.0, 0.0, 0.0, 0.0, 0.0, 0.0, 0.0, 0.0, 0.0, 1.5977656514091651E9, 2020-08-18 08:47:31.409
139.0, 4602.3134765625, 15405.7607421875, 28947.095703125, 8560.2041015625, 6815.44873046875, 17624.86328125, 3851.36181640625, 0.0, 0.12800000607967377, -0.04800000041723251, 0.9920000433921814, 192.0, 0.0, 0.0, 0.0, 0.0, 0.0, 0.0, 0.0, 0.0, 0.0, 1.597765651409171E9, 2020-08-18 08:47:31.409
140.0, 4601.39697265625, 15406.9228515625, 28957.623046875, 8562.595703125, 6820.65673828125, 17626.607421875, 3858.447509765625, 0.0, 0.12800000607967377, -0.04800000041723251, 0.9920000433921814, 192.0, 0.0, 0.0, 0.0, 0.0, 0.0, 0.0, 0.0, 0.0, 0.0, 1.5977656514091773E9, 2020-08-18 08:47:31.409
141.0, 4601.41943359375, 15406.6103515625, 28963.34375, 8572.162109375, 6825.9541015625, 17633.423828125, 3861.19677734375, 0.0, 0.12800000607967377, -0.04800000041723251, 0.9920000433921814, 192.0, 0.0, 0.0, 0.0, 0.0, 0.0, 0.0, 0.0, 0.0, 0.0, 1.5977656514091823E9, 2020-08-18 08:47:31.409
142.0, 4606.62744140625, 15409.4931640625, 28961.064453125, 8574.375, 6825.1494140625, 17633.87109375, 3856.748779296875, 0.0, 0.12800000607967377, -0.04800000041723251, 0.9920000433921814, 192.0, 0.0, 0.0, 0.0, 0.0, 0.0, 0.0, 0.0, 0.0, 0.0, 1.5977656514091873E9, 2020-08-18 08:47:31.409
143.0, 4604.23583984375, 15410.9013671875, 28953.576171875, 8560.650390625, 6817.93017578125, 17623.5234375, 3849.439697265625, 0.0, 0.12800000607967377, -0.04800000041723251, 0.9920000433921814, 192.0, 0.0, 0.0, 0.0, 0.0, 0.0, 0.0, 0.0, 0.0, 0.0, 1.5977656514091928E9, 2020-08-18 08:47:31.409
144.0, 4603.140625, 15410.6103515625, 28956.3046875, 8564.3837890625, 6820.45556640625, 17623.34375, 3852.39013671875, 0.0, 0.13199999928474426, -0.04800000041723251, 0.9900000691413879, 192.0, 4.0, 32.0, 254.0, 128.0, 30.0, 240.0, 0.0, 0.0, 0.0, 1.597765651409197E9, 2020-08-18 08:47:31.409
145.0, 4604.861328125, 15411.169921875, 28965.6015625, 8572.8544921875, 6828.390625, 17632.6640625, 3858.6708984375, 0.0, 0.13199999928474426, -0.04800000041723251, 0.9900000691413879, 192.0, 0.0, 0.0, 0.0, 0.0, 0.0, 0.0, 0.0, 0.0, 0.0, 1.5977656514092045E9, 2020-08-18 08:47:31.409
146.0, 4605.263671875, 15411.0576171875, 28961.333984375, 8566.9990234375, 6825.1943359375, 17635.615234375, 3859.900146484375, 0.0, 0.13199999928474426, -0.04800000041723251, 0.9900000691413879, 192.0, 0.0, 0.0, 0.0, 0.0, 0.0, 0.0, 0.0, 0.0, 0.0, 1.5977656514092095E9, 2020-08-18 08:47:31.409
147.0, 4600.56982421875, 15406.7890625, 28949.62109375, 8558.169921875, 6817.416015625, 17628.150390625, 3857.508544921875, 0.0, 0.13199999928474426, -0.04800000041723251, 0.9900000691413879, 192.0, 0.0, 0.0, 0.0, 0.0, 0.0, 0.0, 0.0, 0.0, 0.0, 1.5977656514092143E9, 2020-08-18 08:47:31.409
148.0, 4600.63720703125, 15407.2578125, 28950.42578125, 8560.0029296875, 6817.9970703125, 17622.44921875, 3855.139404296875, 0.0, 0.13199999928474426, -0.04800000041723251, 0.9900000691413879, 192.0, 0.0, 0.0, 0.0, 0.0, 0.0, 0.0, 0.0, 0.0, 0.0, 1.5977656514092195E9, 2020-08-18 08:47:31.409
149.0, 4592.59033203125, 15404.0390625, 28955.767578125, 8567.2890625, 6819.69580078125, 17626.71875, 3856.59228515625, 0.0, 0.13199999928474426, -0.04800000041723251, 0.9900000691413879, 192.0, 0.0, 0.0, 0.0, 0.0, 0.0, 0.0, 0.0, 0.0, 0.0, 1.5977656514092247E9, 2020-08-18 08:47:31.409
150.0, 4591.673828125, 15398.18359375, 28956.19140625, 8568.3173828125, 6818.33251953125, 17630.451171875, 3855.876953125, 0.0, 0.13199999928474426, -0.04800000041723251, 0.9900000691413879, 192.0, 0.0, 0.0, 0.0, 0.0, 0.0, 0.0, 0.0, 0.0, 0.0, 1.59776565140923E9, 2020-08-18 08:47:31.409
151.0, 4605.59912109375, 15404.1962890625, 28946.537109375, 8554.794921875, 6820.88037109375, 17628.373046875, 3857.307373046875, 0.0, 0.13199999928474426, -0.04800000041723251, 0.9900000691413879, 192.0, 0.0, 0.0, 0.0, 0.0, 0.0, 0.0, 0.0, 0.0, 0.0, 1.597765651409235E9, 2020-08-18 08:47:31.409
152.0, 4603.9228515625, 15406.6318359375, 28939.986328125, 8556.314453125, 6815.85107421875, 17621.421875, 3853.99951171875, 0.0, 0.13199999928474426, -0.04800000041723251, 0.9900000691413879, 192.0, 0.0, 0.0, 0.0, 0.0, 0.0, 0.0, 0.0, 0.0, 0.0, 1.59776565140924E9, 2020-08-18 08:47:31.409
153.0, 4597.306640625, 15404.1513671875, 28949.6875, 8574.375, 6818.623046875, 17623.142578125, 3854.267578125, 0.0, 0.13199999928474426, -0.04800000041723251, 0.9900000691413879, 192.0, 0.0, 0.0, 0.0, 0.0, 0.0, 0.0, 0.0, 0.0, 0.0, 1.5977656514092448E9, 2020-08-18 08:47:31.409
154.0, 4599.0947265625, 15411.326171875, 28968.10546875, 8584.4775390625, 6830.759765625, 17634.38671875, 3860.99560546875, 0.0, 0.13199999928474426, -0.04800000041723251, 0.9940000176429749, 192.0, 4.0, 32.0, 254.0, 128.0, 31.0, 16.0, 0.0, 0.0, 0.0, 1.5977656514092495E9, 2020-08-18 08:47:31.409
155.0, 4600.525390625, 15411.638671875, 28952.2578125, 8565.8583984375, 6823.5625, 17630.564453125, 3859.810791015625, 0.0, 0.13199999928474426, -0.04800000041723251, 0.9940000176429749, 192.0, 0.0, 0.0, 0.0, 0.0, 0.0, 0.0, 0.0, 0.0, 0.0, 1.5977656514092543E9, 2020-08-18 08:47:31.409
156.0, 4596.099609375, 15402.318359375, 28937.7734375, 8550.7490234375, 6812.65478515625, 17617.041015625, 3849.88671875, 0.0, 0.13199999928474426, -0.04800000041723251, 0.9940000176429749, 192.0, 0.0, 0.0, 0.0, 0.0, 0.0, 0.0, 0.0, 0.0, 0.0, 1.5977656514092596E9, 2020-08-18 08:47:31.409
157.0, 4596.099609375, 15400.015625, 28943.25, 8559.935546875, 6814.80078125, 17617.62109375, 3852.99365234375, 0.0, 0.13199999928474426, -0.04800000041723251, 0.9940000176429749, 192.0, 0.0, 0.0, 0.0, 0.0, 0.0, 0.0, 0.0, 0.0, 0.0, 1.597765651409267E9, 2020-08-18 08:47:31.409
158.0, 4597.99951171875, 15402.564453125, 28955.923828125, 8571.0224609375, 6821.4169921875, 17628.6640625, 3857.39697265625, 0.0, 0.13199999928474426, -0.04800000041723251, 0.9940000176429749, 192.0, 0.0, 0.0, 0.0, 0.0, 0.0, 0.0, 0.0, 0.0, 0.0, 1.5977656514092717E9, 2020-08-18 08:47:31.409
159.0, 4592.7470703125, 15404.44140625, 28953.7109375, 8563.8466796875, 6818.98046875, 17625.7578125, 3851.719482421875, 0.0, 0.13199999928474426, -0.04800000041723251, 0.9940000176429749, 192.0, 0.0, 0.0, 0.0, 0.0, 0.0, 0.0, 0.0, 0.0, 0.0, 1.5977656514092765E9, 2020-08-18 08:47:31.409
160.0, 4590.24365234375, 15397.4013671875, 28936.65625, 8552.537109375, 6810.86669921875, 17613.7109375, 3843.896484375, 0.0, 0.13199999928474426, -0.04800000041723251, 0.9940000176429749, 192.0, 0.0, 0.0, 0.0, 0.0, 0.0, 0.0, 0.0, 0.0, 0.0, 1.5977656514092813E9, 2020-08-18 08:47:31.409
161.0, 4592.478515625, 15394.1826171875, 28942.53515625, 8566.7529296875, 6813.88427734375, 17618.11328125, 3851.428955078125, 0.0, 0.13199999928474426, -0.04800000041723251, 0.9940000176429749, 192.0, 0.0, 0.0, 0.0, 0.0, 0.0, 0.0, 0.0, 0.0, 0.0, 1.5977656514092855E9, 2020-08-18 08:47:31.409
162.0, 4596.4794921875, 15397.7587890625, 28950.73828125, 8573.2568359375, 6820.92529296875, 17625.892578125, 3855.407470703125, 0.0, 0.13199999928474426, -0.04800000041723251, 0.9940000176429749, 192.0, 0.0, 0.0, 0.0, 0.0, 0.0, 0.0, 0.0, 0.0, 0.0, 1.5977656514092906E9, 2020-08-18 08:47:31.409
163.0, 4598.15576171875, 15401.3125, 28944.994140625, 8560.181640625, 6817.1923828125, 17623.34375, 3850.221923828125, 0.0, 0.13199999928474426, -0.04800000041723251, 0.9940000176429749, 192.0, 0.0, 0.0, 0.0, 0.0, 0.0, 0.0, 0.0, 0.0, 0.0, 1.597765651409295E9, 2020-08-18 08:47:31.409
164.0, 4593.88671875, 15398.853515625, 28933.392578125, 8547.396484375, 6808.92236328125, 17613.3984375, 3848.009033203125, 0.0, 0.12800000607967377, -0.04200000315904617, 0.9980000257492065, 192.0, 4.0, 0.0, 254.0, 176.0, 31.0, 48.0, 0.0, 0.0, 0.0, 1.5977656514092999E9, 2020-08-18 08:47:31.409
165.0, 4595.76416015625, 15404.1962890625, 28948.837890625, 8564.16015625, 6817.93017578125, 17618.60546875, 3855.2958984375, 0.0, 0.12800000607967377, -0.04200000315904617, 0.9980000257492065, 192.0, 0.0, 0.0, 0.0, 0.0, 0.0, 0.0, 0.0, 0.0, 0.0, 1.5977656514093044E9, 2020-08-18 08:47:31.409
166.0, 4596.8818359375, 15405.5146484375, 28966.09375, 8581.8173828125, 6823.607421875, 17628.10546875, 3859.0732421875, 0.0, 0.12800000607967377, -0.04200000315904617, 0.9980000257492065, 192.0, 0.0, 0.0, 0.0, 0.0, 0.0, 0.0, 0.0, 0.0, 0.0, 1.5977656514093091E9, 2020-08-18 08:47:31.409
167.0, 4594.1552734375, 15401.15625, 28955.611328125, 8570.91015625, 6819.2041015625, 17624.171875, 3852.0771484375, 0.0, 0.12800000607967377, -0.04200000315904617, 0.9980000257492065, 192.0, 0.0, 0.0, 0.0, 0.0, 0.0, 0.0, 0.0, 0.0, 0.0, 1.597765651409314E9, 2020-08-18 08:47:31.409
168.0, 4589.84130859375, 15394.5625, 28938.82421875, 8554.59375, 6808.1845703125, 17615.767578125, 3846.332763671875, 0.0, 0.12800000607967377, -0.04200000315904617, 0.9980000257492065, 192.0, 0.0, 0.0, 0.0, 0.0, 0.0, 0.0, 0.0, 0.0, 0.0, 1.5977656514093251E9, 2020-08-18 08:47:31.409
169.0, 4583.60498046875, 15389.9130859375, 28929.302734375, 8555.4873046875, 6804.72021484375, 17608.546875, 3841.817626953125, 0.0, 0.12800000607967377, -0.04200000315904617, 0.9980000257492065, 192.0, 0.0, 0.0, 0.0, 0.0, 0.0, 0.0, 0.0, 0.0, 0.0, 1.5977656514093308E9, 2020-08-18 08:47:31.409
170.0, 4589.23779296875, 15394.830078125, 28943.98828125, 8575.4248046875, 6816.8125, 17618.29296875, 3849.39501953125, 0.0, 0.12800000607967377, -0.04200000315904617, 0.9980000257492065, 192.0, 0.0, 0.0, 0.0, 0.0, 0.0, 0.0, 0.0, 0.0, 0.0, 1.5977656514093359E9, 2020-08-18 08:47:31.409
171.0, 4589.19287109375, 15397.0654296875, 28947.654296875, 8567.1103515625, 6819.62890625, 17622.60546875, 3851.853515625, 0.0, 0.12800000607967377, -0.04200000315904617, 0.9980000257492065, 192.0, 0.0, 0.0, 0.0, 0.0, 0.0, 0.0, 0.0, 0.0, 0.0, 1.5977656514093413E9, 2020-08-18 08:47:31.409
172.0, 4591.00341796875, 15395.634765625, 28931.224609375, 8550.8603515625, 6810.7998046875, 17613.642578125, 3844.38818359375, 0.0, 0.12800000607967377, -0.04200000315904617, 0.9980000257492065, 192.0, 0.0, 0.0, 0.0, 0.0, 0.0, 0.0, 0.0, 0.0, 0.0, 1.597765651409347E9, 2020-08-18 08:47:31.409
173.0, 4585.884765625, 15387.6552734375, 28926.822265625, 8548.4462890625, 6801.8369140625, 17604.14453125, 3839.4931640625, 0.0, 0.12800000607967377, -0.04200000315904617, 0.9980000257492065, 192.0, 0.0, 0.0, 0.0, 0.0, 0.0, 0.0, 0.0, 0.0, 0.0, 1.5977656514093542E9, 2020-08-18 08:47:31.409
174.0, 4584.85693359375, 15385.2861328125, 28939.181640625, 8560.8076171875, 6804.47412109375, 17608.0546875, 3842.6669921875, 0.0, 0.1300000101327896, -0.04400000348687172, 1.0, 192.0, 4.0, 16.0, 254.0, 160.0, 31.0, 64.0, 0.0, 0.0, 0.0, 1.5977656514093611E9, 2020-08-18 08:47:31.409
175.0, 4590.9365234375, 15391.5224609375, 28947.69921875, 8567.9375, 6812.4091796875, 17619.5, 3848.5009765625, 0.0, 0.1300000101327896, -0.04400000348687172, 1.0, 192.0, 0.0, 0.0, 0.0, 0.0, 0.0, 0.0, 0.0, 0.0, 0.0, 1.5977656514093673E9, 2020-08-18 08:47:31.409
176.0, 4589.81884765625, 15392.595703125, 28932.1640625, 8550.7265625, 6808.7880859375, 17613.84375, 3844.522216796875, 0.0, 0.1300000101327896, -0.04400000348687172, 1.0, 192.0, 0.0, 0.0, 0.0, 0.0, 0.0, 0.0, 0.0, 0.0, 0.0, 1.5977656514093723E9, 2020-08-18 08:47:31.409
177.0, 4580.1630859375, 15383.744140625, 28918.306640625, 8543.216796875, 6799.556640625, 17598.890625, 3835.6708984375, 0.0, 0.1300000101327896, -0.04400000348687172, 1.0, 192.0, 0.0, 0.0, 0.0, 0.0, 0.0, 0.0, 0.0, 0.0, 0.0, 1.5977656514093769E9, 2020-08-18 08:47:31.409
178.0, 4582.42041015625, 15383.9453125, 28930.95703125, 8564.6962890625, 6809.52587890625, 17607.048828125, 3842.130615234375, 0.0, 0.1300000101327896, -0.04400000348687172, 1.0, 192.0, 0.0, 0.0, 0.0, 0.0, 0.0, 0.0, 0.0, 0.0, 0.0, 1.5977656514093816E9, 2020-08-18 08:47:31.409
179.0, 4586.64501953125, 15386.828125, 28938.869140625, 8573.8828125, 6813.1689453125, 17616.75, 3847.00341796875, 0.0, 0.1300000101327896, -0.04400000348687172, 1.0, 192.0, 0.0, 0.0, 0.0, 0.0, 0.0, 0.0, 0.0, 0.0, 0.0, 1.597765651409386E9, 2020-08-18 08:47:31.409
180.0, 4590.2880859375, 15394.96484375, 28936.8125, 8562.908203125, 6813.6162109375, 17617.890625, 3846.042236328125, 0.0, 0.1300000101327896, -0.04400000348687172, 1.0, 192.0, 0.0, 0.0, 0.0, 0.0, 0.0, 0.0, 0.0, 0.0, 0.0, 1.597765651409394E9, 2020-08-18 08:47:31.409
181.0, 4586.734375, 15389.1982421875, 28927.626953125, 8552.2021484375, 6801.814453125, 17607.541015625, 3841.035400390625, 0.0, 0.1300000101327896, -0.04400000348687172, 1.0, 192.0, 0.0, 0.0, 0.0, 0.0, 0.0, 0.0, 0.0, 0.0, 0.0, 1.5977656514093983E9, 2020-08-18 08:47:31.409
182.0, 4586.1533203125, 15387.4541015625, 28936.92578125, 8566.5068359375, 6808.4306640625, 17611.38671875, 3844.410400390625, 0.0, 0.1300000101327896, -0.04400000348687172, 1.0, 192.0, 0.0, 0.0, 0.0, 0.0, 0.0, 0.0, 0.0, 0.0, 0.0, 1.5977656514094028E9, 2020-08-18 08:47:31.409
183.0, 4587.56103515625, 15388.52734375, 28945.28515625, 8569.8369140625, 6814.46533203125, 17619.119140625, 3846.0869140625, 0.0, 0.1300000101327896, -0.04400000348687172, 1.0, 192.0, 0.0, 0.0, 0.0, 0.0, 0.0, 0.0, 0.0, 0.0, 0.0, 1.5977656514094076E9, 2020-08-18 08:47:31.409
184.0, 4592.3447265625, 15392.349609375, 28940.166015625, 8554.458984375, 6818.13134765625, 17617.533203125, 3846.0869140625, 0.0, 0.1340000033378601, -0.04800000041723251, 0.9980000257492065, 192.0, 4.0, 48.0, 254.0, 128.0, 31.0, 48.0, 0.0, 0.0, 0.0, 1.5977656514094121E9, 2020-08-18 08:47:31.409
185.0, 4583.671875, 15387.1640625, 28927.73828125, 8549.51953125, 6803.93798828125, 17603.853515625, 3838.241455078125, 0.0, 0.1340000033378601, -0.04800000041723251, 0.9980000257492065, 192.0, 0.0, 0.0, 0.0, 0.0, 0.0, 0.0, 0.0, 0.0, 0.0, 1.597765651409417E9, 2020-08-18 08:47:31.409
186.0, 4582.95703125, 15387.4990234375, 28929.369140625, 8561.388671875, 6805.63671875, 17605.91015625, 3841.884765625, 0.0, 0.1340000033378601, -0.04800000041723251, 0.9980000257492065, 192.0, 0.0, 0.0, 0.0, 0.0, 0.0, 0.0, 0.0, 0.0, 0.0, 1.5977656514094212E9, 2020-08-18 08:47:31.409
187.0, 4585.7509765625, 15388.9296875, 28943.00390625, 8572.005859375, 6813.8173828125, 17612.681640625, 3843.6728515625, 0.0, 0.1340000033378601, -0.04800000041723251, 0.9980000257492065, 192.0, 0.0, 0.0, 0.0, 0.0, 0.0, 0.0, 0.0, 0.0, 0.0, 1.5977656514094255E9, 2020-08-18 08:47:31.409
188.0, 4586.84619140625, 15386.7392578125, 28937.37109375, 8556.9404296875, 6807.6484375, 17609.396484375, 3840.342529296875, 0.0, 0.1340000033378601, -0.04800000041723251, 0.9980000257492065, 192.0, 0.0, 0.0, 0.0, 0.0, 0.0, 0.0, 0.0, 0.0, 0.0, 1.5977656514094303E9, 2020-08-18 08:47:31.409
189.0, 4581.39208984375, 15380.525390625, 28916.09375, 8538.052734375, 6795.578125, 17594.8671875, 3829.434814453125, 0.0, 0.1340000033378601, -0.04800000041723251, 0.9980000257492065, 192.0, 0.0, 0.0, 0.0, 0.0, 0.0, 0.0, 0.0, 0.0, 0.0, 1.5977656514094346E9, 2020-08-18 08:47:31.409
190.0, 4569.65771484375, 15370.9814453125, 28916.7421875, 8544.7138671875, 6790.90673828125, 17588.67578125, 3822.01416015625, 0.0, 0.1340000033378601, -0.04800000041723251, 0.9980000257492065, 192.0, 0.0, 0.0, 0.0, 0.0, 0.0, 0.0, 0.0, 0.0, 0.0, 1.597765651409439E9, 2020-08-18 08:47:31.409
191.0, 4574.37353515625, 15381.62109375, 28944.61328125, 8574.8662109375, 6806.93310546875, 17608.7265625, 3839.515380859375, 0.0, 0.1340000033378601, -0.04800000041723251, 0.9980000257492065, 192.0, 0.0, 0.0, 0.0, 0.0, 0.0, 0.0, 0.0, 0.0, 0.0, 1.5977656514094436E9, 2020-08-18 08:47:31.409
192.0, 4588.76806640625, 15386.9853515625, 28942.826171875, 8568.8759765625, 6812.2080078125, 17612.458984375, 3842.555419921875, 0.0, 0.1340000033378601, -0.04800000041723251, 0.9980000257492065, 192.0, 0.0, 0.0, 0.0, 0.0, 0.0, 0.0, 0.0, 0.0, 0.0, 1.5977656514094481E9, 2020-08-18 08:47:31.409
193.0, 4580.3193359375, 15383.6767578125, 28927.11328125, 8549.1171875, 6803.33447265625, 17605.328125, 3837.1015625, 0.0, 0.13199999928474426, -0.05000000074505806, 0.9960000514984131, 192.0, 4.0, 32.0, 254.0, 112.0, 31.0, 32.0, 0.0, 0.0, 0.0, 1.597765651409453E9, 2020-08-18 08:47:31.409
194.0, 4572.25048828125, 15377.6865234375, 28917.880859375, 8541.0703125, 6796.025390625, 17596.857421875, 3830.932373046875, 0.0, 0.13199999928474426, -0.05000000074505806, 0.9960000514984131, 192.0, 0.0, 0.0, 0.0, 0.0, 0.0, 0.0, 0.0, 0.0, 0.0, 1.597765651409458E9, 2020-08-18 08:47:31.409
195.0, 4576.20654296875, 15379.51953125, 28931.783203125, 8552.6484375, 6803.78125, 17604.94921875, 3837.034423828125, 0.0, 0.13199999928474426, -0.05000000074505806, 0.9960000514984131, 192.0, 0.0, 0.0, 0.0, 0.0, 0.0, 0.0, 0.0, 0.0, 0.0, 1.5977656514094627E9, 2020-08-18 08:47:31.409
196.0, 4578.59814453125, 15378.267578125, 28933.974609375, 8560.78515625, 6805.92724609375, 17609.955078125, 3835.827392578125, 0.0, 0.13199999928474426, -0.05000000074505806, 0.9960000514984131, 192.0, 0.0, 0.0, 0.0, 0.0, 0.0, 0.0, 0.0, 0.0, 0.0, 1.5977656514094672E9, 2020-08-18 08:47:31.409
197.0, 4582.107421875, 15383.341796875, 28927.224609375, 8555.1298828125, 6805.32373046875, 17607.228515625, 3834.016845703125, 0.0, 0.13199999928474426, -0.05000000074505806, 0.9960000514984131, 192.0, 0.0, 0.0, 0.0, 0.0, 0.0, 0.0, 0.0, 0.0, 0.0, 1.597765651409472E9, 2020-08-18 08:47:31.409
198.0, 4571.892578125, 15376.189453125, 28927.76171875, 8544.22265625, 6796.11474609375, 17594.46484375, 3825.97021484375, 0.0, 0.13199999928474426, -0.05000000074505806, 0.9960000514984131, 192.0, 0.0, 0.0, 0.0, 0.0, 0.0, 0.0, 0.0, 0.0, 0.0, 1.5977656514094772E9, 2020-08-18 08:47:31.409
199.0, 4573.748046875, 15374.423828125, 28932.119140625, 8555.4208984375, 6802.26123046875, 17599.763671875, 3828.518310546875, 0.0, 0.13199999928474426, -0.05000000074505806, 0.9960000514984131, 192.0, 0.0, 0.0, 0.0, 0.0, 0.0, 0.0, 0.0, 0.0, 0.0, 1.5977656514094815E9, 2020-08-18 08:47:31.409
200.0, 4576.474609375, 15379.630859375, 28936.388671875, 8564.4951171875, 6809.70458984375, 17610.58203125, 3838.040283203125, 0.0, 0.13199999928474426, -0.05000000074505806, 0.9960000514984131, 192.0, 0.0, 0.0, 0.0, 0.0, 0.0, 0.0, 0.0, 0.0, 0.0, 1.597765651409486E9, 2020-08-18 08:47:31.409
201.0, 4575.06640625, 15376.7255859375, 28917.232421875, 8549.67578125, 6799.28857421875, 17604.79296875, 3834.039306640625, 0.0, 0.13199999928474426, -0.05000000074505806, 0.9960000514984131, 192.0, 0.0, 0.0, 0.0, 0.0, 0.0, 0.0, 0.0, 0.0, 0.0, 1.5977656514094903E9, 2020-08-18 08:47:31.409
202.0, 4582.7109375, 15379.6982421875, 28916.427734375, 8551.083984375, 6801.52392578125, 17604.8359375, 3841.4599609375, 0.0, 0.13199999928474426, -0.05000000074505806, 0.9960000514984131, 192.0, 0.0, 0.0, 0.0, 0.0, 0.0, 0.0, 0.0, 0.0, 0.0, 1.597765651409495E9, 2020-08-18 08:47:31.409
203.0, 4583.76171875, 15378.71484375, 28925.34765625, 8564.4951171875, 6806.06103515625, 17606.021484375, 3841.527099609375, 0.0, 0.12800000607967377, -0.046000003814697266, 0.9980000257492065, 192.0, 4.0, 0.0, 254.0, 144.0, 31.0, 48.0, 0.0, 0.0, 0.0, 1.597765651409502E9, 2020-08-18 08:47:31.409
204.0, 4576.81005859375, 15377.396484375, 28932.947265625, 8566.73046875, 6804.228515625, 17602.421875, 3829.725341796875, 0.0, 0.12800000607967377, -0.046000003814697266, 0.9980000257492065, 192.0, 0.0, 0.0, 0.0, 0.0, 0.0, 0.0, 0.0, 0.0, 0.0, 1.597765651409507E9, 2020-08-18 08:47:31.409
205.0, 4574.66455078125, 15372.43359375, 28918.775390625, 8547.4189453125, 6795.35498046875, 17593.818359375, 3822.39404296875, 0.0, 0.12800000607967377, -0.046000003814697266, 0.9980000257492065, 192.0, 0.0, 0.0, 0.0, 0.0, 0.0, 0.0, 0.0, 0.0, 0.0, 1.5977656514095116E9, 2020-08-18 08:47:31.409
206.0, 4568.5400390625, 15368.1875, 28903.12890625, 8536.533203125, 6786.30224609375, 17583.40234375, 3818.750732421875, 0.0, 0.12800000607967377, -0.046000003814697266, 0.9980000257492065, 192.0, 0.0, 0.0, 0.0, 0.0, 0.0, 0.0, 0.0, 0.0, 0.0, 1.5977656514095163E9, 2020-08-18 08:47:31.409
207.0, 4567.60107421875, 15368.5673828125, 28908.91796875, 8553.9677734375, 6792.67236328125, 17587.87109375, 3819.97998046875, 0.0, 0.12800000607967377, -0.046000003814697266, 0.9980000257492065, 192.0, 0.0, 0.0, 0.0, 0.0, 0.0, 0.0, 0.0, 0.0, 0.0, 1.597765651409521E9, 2020-08-18 08:47:31.409
208.0, 4576.564453125, 15374.333984375, 28924.453125, 8562.3720703125, 6801.27783203125, 17597.03515625, 3822.6845703125, 0.0, 0.12800000607967377, -0.046000003814697266, 0.9980000257492065, 192.0, 0.0, 0.0, 0.0, 0.0, 0.0, 0.0, 0.0, 0.0, 0.0, 1.5977656514095256E9, 2020-08-18 08:47:31.409
209.0, 4579.939453125, 15375.8984375, 28922.955078125, 8551.576171875, 6799.73583984375, 17597.83984375, 3825.27734375, 0.0, 0.12800000607967377, -0.046000003814697266, 0.9980000257492065, 192.0, 0.0, 0.0, 0.0, 0.0, 0.0, 0.0, 0.0, 0.0, 0.0, 1.59776565140953E9, 2020-08-18 08:47:31.409
210.0, 4570.81982421875, 15369.0361328125, 28906.2578125, 8539.349609375, 6789.4091796875, 17584.20703125, 3816.850830078125, 0.0, 0.12800000607967377, -0.046000003814697266, 0.9980000257492065, 192.0, 0.0, 0.0, 0.0, 0.0, 0.0, 0.0, 0.0, 0.0, 0.0, 1.5977656514095347E9, 2020-08-18 08:47:31.409
211.0, 4566.59521484375, 15367.62890625, 28908.0234375, 8549.966796875, 6792.76171875, 17588.4296875, 3822.528076171875, 0.0, 0.12800000607967377, -0.046000003814697266, 0.9980000257492065, 192.0, 0.0, 0.0, 0.0, 0.0, 0.0, 0.0, 0.0, 0.0, 0.0, 1.5977656514095392E9, 2020-08-18 08:47:31.409
212.0, 4571.5576171875, 15367.9638671875, 28915.53515625, 8556.560546875, 6795.46630859375, 17597.080078125, 3827.8701171875, 0.0, 0.12800000607967377, -0.046000003814697266, 0.9980000257492065, 192.0, 0.0, 0.0, 0.0, 0.0, 0.0, 0.0, 0.0, 0.0, 0.0, 1.5977656514095435E9, 2020-08-18 08:47:31.409
213.0, 4577.59228515625, 15372.6572265625, 28918.171875, 8550.4140625, 6796.2490234375, 17597.52734375, 3827.69140625, 0.0, 0.12400000542402267, -0.05400000140070915, 0.9960000514984131, 192.0, 3.0, 224.0, 254.0, 80.0, 31.0, 32.0, 0.0, 0.0, 0.0, 1.5977656514095483E9, 2020-08-18 08:47:31.409
214.0, 4572.4736328125, 15371.1826171875, 28917.232421875, 8539.1708984375, 6791.33154296875, 17585.546875, 3818.147216796875, 0.0, 0.12400000542402267, -0.05400000140070915, 0.9960000514984131, 192.0, 0.0, 0.0, 0.0, 0.0, 0.0, 0.0, 0.0, 0.0, 0.0, 1.597765651409553E9, 2020-08-18 08:47:31.409
215.0, 4574.03857421875, 15370.19921875, 28918.283203125, 8545.228515625, 6790.52685546875, 17586.44140625, 3822.57275390625, 0.0, 0.12400000542402267, -0.05400000140070915, 0.9960000514984131, 192.0, 0.0, 0.0, 0.0, 0.0, 0.0, 0.0, 0.0, 0.0, 0.0, 1.5977656514095573E9, 2020-08-18 08:47:31.409
216.0, 4567.712890625, 15369.796875, 28924.18359375, 8555.8447265625, 6796.47216796875, 17592.119140625, 3823.355224609375, 0.0, 0.12400000542402267, -0.05400000140070915, 0.9960000514984131, 192.0, 0.0, 0.0, 0.0, 0.0, 0.0, 0.0, 0.0, 0.0, 0.0, 1.5977656514095633E9, 2020-08-18 08:47:31.409
217.0, 4572.138671875, 15372.8359375, 28919.423828125, 8553.38671875, 6799.19921875, 17597.662109375, 3823.533935546875, 0.0, 0.12400000542402267, -0.05400000140070915, 0.9960000514984131, 192.0, 0.0, 0.0, 0.0, 0.0, 0.0, 0.0, 0.0, 0.0, 0.0, 1.5977656514095676E9, 2020-08-18 08:47:31.409
218.0, 4578.732421875, 15376.6142578125, 28914.484375, 8549.7880859375, 6797.2548828125, 17598.556640625, 3827.825439453125, 0.0, 0.12400000542402267, -0.05400000140070915, 0.9960000514984131, 192.0, 0.0, 0.0, 0.0, 0.0, 0.0, 0.0, 0.0, 0.0, 0.0, 1.597765651409572E9, 2020-08-18 08:47:31.409
219.0, 4568.4951171875, 15369.349609375, 28914.974609375, 8548.9609375, 6790.2587890625, 17586.865234375, 3819.19775390625, 0.0, 0.12400000542402267, -0.05400000140070915, 0.9960000514984131, 192.0, 0.0, 0.0, 0.0, 0.0, 0.0, 0.0, 0.0, 0.0, 0.0, 1.5977656514095767E9, 2020-08-18 08:47:31.409
220.0, 4566.64013671875, 15364.275390625, 28922.28515625, 8559.64453125, 6791.10791015625, 17586.419921875, 3817.722412109375, 0.0, 0.12400000542402267, -0.05400000140070915, 0.9960000514984131, 192.0, 0.0, 0.0, 0.0, 0.0, 0.0, 0.0, 0.0, 0.0, 0.0, 1.5977656514095814E9, 2020-08-18 08:47:31.409
221.0, 4572.8984375, 15370.0869140625, 28924.51953125, 8569.1669921875, 6799.0205078125, 17599.3828125, 3826.57373046875, 0.0, 0.12400000542402267, -0.05400000140070915, 0.9960000514984131, 192.0, 0.0, 0.0, 0.0, 0.0, 0.0, 0.0, 0.0, 0.0, 0.0, 1.597765651409586E9, 2020-08-18 08:47:31.409
222.0, 4576.98876953125, 15371.607421875, 28913.96875, 8548.603515625, 6794.46044921875, 17597.4609375, 3828.18310546875, 0.0, 0.12400000542402267, -0.05400000140070915, 0.9960000514984131, 192.0, 0.0, 0.0, 0.0, 0.0, 0.0, 0.0, 0.0, 0.0, 0.0, 1.5977656514095905E9, 2020-08-18 08:47:31.409
223.0, 4570.84228515625, 15362.46484375, 28896.982421875, 8534.2529296875, 6781.98828125, 17582.150390625, 3819.890625, 0.0, 0.12800000607967377, -0.05000000074505806, 0.9900000691413879, 192.0, 4.0, 0.0, 254.0, 112.0, 30.0, 240.0, 0.0, 0.0, 0.0, 1.5977656514095948E9, 2020-08-18 08:47:31.409
224.0, 4566.05908203125, 15357.1904296875, 28907.263671875, 8545.9658203125, 6782.92724609375, 17581.189453125, 3819.555419921875, 0.0, 0.12800000607967377, -0.05000000074505806, 0.9900000691413879, 192.0, 0.0, 0.0, 0.0, 0.0, 0.0, 0.0, 0.0, 0.0, 0.0, 1.5977656514095993E9, 2020-08-18 08:47:31.409
225.0, 4574.91015625, 15371.9423828125, 28921.279296875, 8556.8505859375, 6799.6015625, 17596.5, 3830.37353515625, 0.0, 0.12800000607967377, -0.05000000074505806, 0.9900000691413879, 192.0, 0.0, 0.0, 0.0, 0.0, 0.0, 0.0, 0.0, 0.0, 0.0, 1.5977656514096038E9, 2020-08-18 08:47:31.409
226.0, 4576.0947265625, 15377.0830078125, 28912.44921875, 8544.244140625, 6797.7685546875, 17593.951171875, 3826.551513671875, 0.0, 0.12800000607967377, -0.05000000074505806, 0.9900000691413879, 192.0, 0.0, 0.0, 0.0, 0.0, 0.0, 0.0, 0.0, 0.0, 0.0, 1.5977656514096112E9, 2020-08-18 08:47:31.409
227.0, 4571.9150390625, 15369.0146484375, 28906.28125, 8537.986328125, 6788.69384765625, 17582.640625, 3819.97998046875, 0.0, 0.12800000607967377, -0.05000000074505806, 0.9900000691413879, 192.0, 0.0, 0.0, 0.0, 0.0, 0.0, 0.0, 0.0, 0.0, 0.0, 1.5977656514096155E9, 2020-08-18 08:47:31.409
228.0, 4572.8759765625, 15365.5498046875, 28909.275390625, 8551.12890625, 6794.8408203125, 17587.55859375, 3826.126708984375, 0.0, 0.12800000607967377, -0.05000000074505806, 0.9900000691413879, 192.0, 0.0, 0.0, 0.0, 0.0, 0.0, 0.0, 0.0, 0.0, 0.0, 1.59776565140962E9, 2020-08-18 08:47:31.409
229.0, 4572.02685546875, 15369.05859375, 28916.583984375, 8565.2109375, 6800.6298828125, 17597.83984375, 3829.814697265625, 0.0, 0.12800000607967377, -0.05000000074505806, 0.9900000691413879, 192.0, 0.0, 0.0, 0.0, 0.0, 0.0, 0.0, 0.0, 0.0, 0.0, 1.5977656514096248E9, 2020-08-18 08:47:31.409
230.0, 4578.5087890625, 15370.9365234375, 28905.23046875, 8556.515625, 6797.54541015625, 17595.583984375, 3828.630126953125, 0.0, 0.12800000607967377, -0.05000000074505806, 0.9900000691413879, 192.0, 0.0, 0.0, 0.0, 0.0, 0.0, 0.0, 0.0, 0.0, 0.0, 1.597765651409629E9, 2020-08-18 08:47:31.409
231.0, 4575.3125, 15367.8076171875, 28896.916015625, 8545.7646484375, 6788.984375, 17584.697265625, 3824.60693359375, 0.0, 0.12800000607967377, -0.05000000074505806, 0.9900000691413879, 192.0, 0.0, 0.0, 0.0, 0.0, 0.0, 0.0, 0.0, 0.0, 0.0, 1.5977656514096336E9, 2020-08-18 08:47:31.409
232.0, 4571.9375, 15365.7060546875, 28904.26953125, 8555.0185546875, 6793.32080078125, 17585.48046875, 3824.517333984375, 0.0, 0.12800000607967377, -0.05000000074505806, 0.9900000691413879, 192.0, 4.0, 0.0, 254.0, 112.0, 30.0, 240.0, 0.0, 0.0, 0.0, 1.5977656514096384E9, 2020-08-18 08:47:31.409
233.0, 4576.65380859375, 15364.7900390625, 28915.9140625, 8564.517578125, 6802.3955078125, 17592.69921875, 3826.953857421875, 0.0, 0.12800000607967377, -0.05000000074505806, 0.9900000691413879, 192.0, 0.0, 0.0, 0.0, 0.0, 0.0, 0.0, 0.0, 0.0, 0.0, 1.5977656514096427E9, 2020-08-18 08:47:31.409
234.0, 4574.6865234375, 15366.890625, 28913.857421875, 8555.4873046875, 6799.958984375, 17592.3203125, 3825.36669921875, 0.0, 0.12800000607967377, -0.05000000074505806, 0.9900000691413879, 192.0, 0.0, 0.0, 0.0, 0.0, 0.0, 0.0, 0.0, 0.0, 0.0, 1.5977656514096475E9, 2020-08-18 08:47:31.409
235.0, 4568.45068359375, 15363.158203125, 28898.658203125, 8536.7119140625, 6789.2529296875, 17579.490234375, 3816.828369140625, 0.0, 0.12800000607967377, -0.05000000074505806, 0.9900000691413879, 192.0, 0.0, 0.0, 0.0, 0.0, 0.0, 0.0, 0.0, 0.0, 0.0, 1.597765651409652E9, 2020-08-18 08:47:31.409
236.0, 4569.61279296875, 15366.17578125, 28905.341796875, 8548.0, 6794.66162109375, 17582.3515625, 3821.61181640625, 0.0, 0.12800000607967377, -0.05000000074505806, 0.9900000691413879, 192.0, 0.0, 0.0, 0.0, 0.0, 0.0, 0.0, 0.0, 0.0, 0.0, 1.5977656514096568E9, 2020-08-18 08:47:31.409
237.0, 4571.333984375, 15367.5166015625, 28924.810546875, 8566.3505859375, 6800.5625, 17589.369140625, 3825.59033203125, 0.0, 0.12800000607967377, -0.05000000074505806, 0.9900000691413879, 192.0, 0.0, 0.0, 0.0, 0.0, 0.0, 0.0, 0.0, 0.0, 0.0, 1.5977656514096615E9, 2020-08-18 08:47:31.409
238.0, 4576.58642578125, 15367.2705078125, 28921.591796875, 8563.154296875, 6796.583984375, 17591.76171875, 3830.19482421875, 0.0, 0.12800000607967377, -0.05000000074505806, 0.9900000691413879, 192.0, 0.0, 0.0, 0.0, 0.0, 0.0, 0.0, 0.0, 0.0, 0.0, 1.597765651409666E9, 2020-08-18 08:47:31.409
239.0, 4570.43994140625, 15360.029296875, 28902.771484375, 8540.4228515625, 6783.2626953125, 17577.12109375, 3821.20947265625, 0.0, 0.12800000607967377, -0.05000000074505806, 0.9900000691413879, 192.0, 0.0, 0.0, 0.0, 0.0, 0.0, 0.0, 0.0, 0.0, 0.0, 1.5977656514096704E9, 2020-08-18 08:47:31.409
240.0, 4569.724609375, 15359.3134765625, 28899.9765625, 8540.35546875, 6782.3681640625, 17571.263671875, 3818.147216796875, 0.0, 0.12800000607967377, -0.05000000074505806, 0.9900000691413879, 192.0, 0.0, 0.0, 0.0, 0.0, 0.0, 0.0, 0.0, 0.0, 0.0, 1.5977656514096751E9, 2020-08-18 08:47:31.409
241.0, 4574.150390625, 15361.0791015625, 28908.13671875, 8555.7109375, 6793.0302734375, 17581.904296875, 3821.835205078125, 0.0, 0.12800000607967377, -0.05000000074505806, 0.9900000691413879, 192.0, 0.0, 0.0, 0.0, 0.0, 0.0, 0.0, 0.0, 0.0, 0.0, 1.5977656518893104E9, 2020-08-18 08:47:31.889
242.0, 4570.46240234375, 15360.029296875, 28903.017578125, 8550.234375, 6793.34326171875, 17583.06640625, 3817.253173828125, 0.0, 0.1300000101327896, -0.046000003814697266, 0.9900000691413879, 192.0, 4.0, 16.0, 254.0, 144.0, 30.0, 240.0, 0.0, 0.0, 0.0, 1.597765651889465E9, 2020-08-18 08:47:31.889
243.0, 4569.81396484375, 15358.330078125, 28894.14453125, 8542.0537109375, 6786.369140625, 17576.44921875, 3813.140380859375, 0.0, 0.1300000101327896, -0.046000003814697266, 0.9900000691413879, 192.0, 0.0, 0.0, 0.0, 0.0, 0.0, 0.0, 0.0, 0.0, 0.0, 1.5977656518896503E9, 2020-08-18 08:47:31.889
244.0, 4568.4951171875, 15361.1689453125, 28901.453125, 8548.71484375, 6787.419921875, 17575.7578125, 3815.733154296875, 0.0, 0.1300000101327896, -0.046000003814697266, 0.9900000691413879, 192.0, 0.0, 0.0, 0.0, 0.0, 0.0, 0.0, 0.0, 0.0, 0.0, 1.5977656518899071E9, 2020-08-18 08:47:31.889
245.0, 4570.77490234375, 15361.458984375, 28907.48828125, 8554.7275390625, 6792.49365234375, 17583.201171875, 3825.27734375, 0.0, 0.1300000101327896, -0.046000003814697266, 0.9900000691413879, 192.0, 0.0, 0.0, 0.0, 0.0, 0.0, 0.0, 0.0, 0.0, 0.0, 1.5977656518899176E9, 2020-08-18 08:47:31.889
246.0, 4577.41357421875, 15364.72265625, 28913.03125, 8561.0751953125, 6796.2041015625, 17588.876953125, 3829.39013671875, 0.0, 0.1300000101327896, -0.046000003814697266, 0.9900000691413879, 192.0, 0.0, 0.0, 0.0, 0.0, 0.0, 0.0, 0.0, 0.0, 0.0, 1.597765651889927E9, 2020-08-18 08:47:31.889
247.0, 4575.62548828125, 15369.7744140625, 28906.50390625, 8547.9775390625, 6800.27197265625, 17580.384765625, 3818.527099609375, 0.0, 0.1300000101327896, -0.046000003814697266, 0.9900000691413879, 192.0, 0.0, 0.0, 0.0, 0.0, 0.0, 0.0, 0.0, 0.0, 0.0, 1.5977656518899362E9, 2020-08-18 08:47:31.889
248.0, 4572.943359375, 15363.9404296875, 28897.787109375, 8537.6064453125, 6790.4150390625, 17569.923828125, 3811.21826171875, 0.0, 0.1300000101327896, -0.046000003814697266, 0.9900000691413879, 192.0, 0.0, 0.0, 0.0, 0.0, 0.0, 0.0, 0.0, 0.0, 0.0, 1.5977656518899455E9, 2020-08-18 08:47:31.889
249.0, 4570.66357421875, 15360.9677734375, 28904.984375, 8550.3916015625, 6793.611328125, 17579.2890625, 3820.225830078125, 0.0, 0.1300000101327896, -0.046000003814697266, 0.9900000691413879, 192.0, 0.0, 0.0, 0.0, 0.0, 0.0, 0.0, 0.0, 0.0, 0.0, 1.5977656518899548E9, 2020-08-18 08:47:31.889
250.0, 4578.1064453125, 15371.6962890625, 28918.6640625, 8562.2158203125, 6804.11669921875, 17593.52734375, 3828.920654296875, 0.0, 0.1300000101327896, -0.046000003814697266, 0.9900000691413879, 192.0, 0.0, 0.0, 0.0, 0.0, 0.0, 0.0, 0.0, 0.0, 0.0, 1.5977656518899753E9, 2020-08-18 08:47:31.889
251.0, 4574.03857421875, 15364.7001953125, 28901.67578125, 8542.8583984375, 6789.4091796875, 17578.8203125, 3815.822509765625, 0.0, 0.1300000101327896, -0.046000003814697266, 0.9900000691413879, 192.0, 0.0, 0.0, 0.0, 0.0, 0.0, 0.0, 0.0, 0.0, 0.0, 1.5977656518899868E9, 2020-08-18 08:47:31.889
252.0, 4571.22216796875, 15353.501953125, 28883.1015625, 8531.2578125, 6776.4677734375, 17568.1796875, 3809.251220703125, 0.0, 0.12600000202655792, -0.05400000140070915, 0.9900000691413879, 192.0, 3.0, 240.0, 254.0, 80.0, 30.0, 240.0, 0.0, 0.0, 0.0, 1.5977656518899963E9, 2020-08-18 08:47:31.889
253.0, 4569.99267578125, 15350.3056640625, 28884.62109375, 8548.9384765625, 6780.8037109375, 17574.728515625, 3817.87890625, 0.0, 0.12600000202655792, -0.05400000140070915, 0.9900000691413879, 192.0, 0.0, 0.0, 0.0, 0.0, 0.0, 0.0, 0.0, 0.0, 0.0, 1.5977656518900054E9, 2020-08-18 08:47:31.890
254.0, 4570.5517578125, 15355.9609375, 28899.216796875, 8565.61328125, 6791.33154296875, 17580.384765625, 3820.158935546875, 0.0, 0.12600000202655792, -0.05400000140070915, 0.9900000691413879, 192.0, 0.0, 0.0, 0.0, 0.0, 0.0, 0.0, 0.0, 0.0, 0.0, 1.597765651890015E9, 2020-08-18 08:47:31.890
255.0, 4573.23388671875, 15365.7958984375, 28902.90625, 8552.24609375, 6792.046875, 17580.00390625, 3820.8740234375, 0.0, 0.12600000202655792, -0.05400000140070915, 0.9900000691413879, 192.0, 0.0, 0.0, 0.0, 0.0, 0.0, 0.0, 0.0, 0.0, 0.0, 1.597765651890024E9, 2020-08-18 08:47:31.890
0.0, 4572.6748046875, 15366.779296875, 28889.60546875, 8536.287109375, 6790.2138671875, 17574.349609375, 3817.454345703125, 0.0, 0.12600000202655792, -0.05400000140070915, 0.9900000691413879, 192.0, 0.0, 0.0, 0.0, 0.0, 0.0, 0.0, 0.0, 0.0, 0.0, 1.59776565189004E9, 2020-08-18 08:47:31.890
1.0, 4562.05810546875, 15355.15625, 28891.55078125, 8540.466796875, 6783.2177734375, 17567.912109375, 3810.078125, 0.0, 0.12600000202655792, -0.05400000140070915, 0.9900000691413879, 192.0, 0.0, 0.0, 0.0, 0.0, 0.0, 0.0, 0.0, 0.0, 0.0, 1.5977656518900506E9, 2020-08-18 08:47:31.890
2.0, 4573.7255859375, 15361.9736328125, 28900.37890625, 8553.0732421875, 6790.50439453125, 17583.021484375, 3820.538818359375, 0.0, 0.12600000202655792, -0.05400000140070915, 0.9900000691413879, 192.0, 0.0, 0.0, 0.0, 0.0, 0.0, 0.0, 0.0, 0.0, 0.0, 1.59776565189006E9, 2020-08-18 08:47:31.890
3.0, 4573.23388671875, 15365.326171875, 28895.283203125, 8541.7412109375, 6791.93505859375, 17582.26171875, 3818.549560546875, 0.0, 0.12600000202655792, -0.05400000140070915, 0.9900000691413879, 192.0, 0.0, 0.0, 0.0, 0.0, 0.0, 0.0, 0.0, 0.0, 0.0, 1.5977656518900692E9, 2020-08-18 08:47:31.890
4.0, 4571.5126953125, 15362.2861328125, 28882.38671875, 8536.48828125, 6787.15185546875, 17574.37109375, 3814.235595703125, 0.0, 0.12600000202655792, -0.05400000140070915, 0.9900000691413879, 192.0, 0.0, 0.0, 0.0, 0.0, 0.0, 0.0, 0.0, 0.0, 0.0, 1.5977656518900783E9, 2020-08-18 08:47:31.890
5.0, 4566.8857421875, 15356.162109375, 28885.314453125, 8550.7265625, 6783.88818359375, 17571.509765625, 3813.60986328125, 0.0, 0.12600000202655792, -0.05400000140070915, 0.9900000691413879, 192.0, 0.0, 0.0, 0.0, 0.0, 0.0, 0.0, 0.0, 0.0, 0.0, 1.597765651890088E9, 2020-08-18 08:47:31.890
6.0, 4564.38232421875, 15355.0439453125, 28898.703125, 8570.6416015625, 6789.4091796875, 17579.490234375, 3816.873046875, 0.0, 0.12600000202655792, -0.05400000140070915, 0.9940000176429749, 192.0, 3.0, 240.0, 254.0, 80.0, 31.0, 16.0, 0.0, 0.0, 0.0, 1.5977656518900971E9, 2020-08-18 08:47:31.890
7.0, 4573.36767578125, 15361.7724609375, 28894.0546875, 8557.23046875, 6792.09130859375, 17584.5859375, 3821.76806640625, 0.0, 0.12600000202655792, -0.05400000140070915, 0.9940000176429749, 192.0, 0.0, 0.0, 0.0, 0.0, 0.0, 0.0, 0.0, 0.0, 0.0, 1.5977656518901067E9, 2020-08-18 08:47:31.890
8.0, 4571.24462890625, 15356.162109375, 28875.369140625, 8534.07421875, 6777.8310546875, 17572.427734375, 3813.855712890625, 0.0, 0.12600000202655792, -0.05400000140070915, 0.9940000176429749, 192.0, 0.0, 0.0, 0.0, 0.0, 0.0, 0.0, 0.0, 0.0, 0.0, 1.597765651890116E9, 2020-08-18 08:47:31.890
9.0, 4565.298828125, 15351.982421875, 28872.91015625, 8534.1416015625, 6773.94189453125, 17563.576171875, 3808.20068359375, 0.0, 0.12600000202655792, -0.05400000140070915, 0.9940000176429749, 192.0, 0.0, 0.0, 0.0, 0.0, 0.0, 0.0, 0.0, 0.0, 0.0, 1.5977656518901253E9, 2020-08-18 08:47:31.890
10.0, 4570.17138671875, 15355.513671875, 28888.845703125, 8545.7197265625, 6784.9833984375, 17572.248046875, 3813.2744140625, 0.0, 0.12600000202655792, -0.05400000140070915, 0.9940000176429749, 192.0, 0.0, 0.0, 0.0, 0.0, 0.0, 0.0, 0.0, 0.0, 0.0, 1.5977656518901348E9, 2020-08-18 08:47:31.890
11.0, 4571.53515625, 15356.8994140625, 28893.763671875, 8548.669921875, 6788.4033203125, 17581.255859375, 3816.58251953125, 0.0, 0.12600000202655792, -0.05400000140070915, 0.9940000176429749, 192.0, 0.0, 0.0, 0.0, 0.0, 0.0, 0.0, 0.0, 0.0, 0.0, 1.597765651890144E9, 2020-08-18 08:47:31.890
12.0, 4574.9326171875, 15361.6376953125, 28887.3046875, 8542.12109375, 6786.34716796875, 17578.619140625, 3818.951904296875, 0.0, 0.12600000202655792, -0.05400000140070915, 0.9940000176429749, 192.0, 0.0, 0.0, 0.0, 0.0, 0.0, 0.0, 0.0, 0.0, 0.0, 1.5977656518901534E9, 2020-08-18 08:47:31.890
13.0, 4565.9248046875, 15355.603515625, 28879.97265625, 8536.1083984375, 6779.1943359375, 17567.8671875, 3813.8779296875, 0.0, 0.12600000202655792, -0.05400000140070915, 0.9940000176429749, 192.0, 0.0, 0.0, 0.0, 0.0, 0.0, 0.0, 0.0, 0.0, 0.0, 1.5977656518901627E9, 2020-08-18 08:47:31.890
14.0, 4569.38916015625, 15355.0888671875, 28886.611328125, 8557.8564453125, 6785.9892578125, 17577.58984375, 3820.8740234375, 0.0, 0.12600000202655792, -0.05400000140070915, 0.9940000176429749, 192.0, 0.0, 0.0, 0.0, 0.0, 0.0, 0.0, 0.0, 0.0, 0.0, 1.597765651890172E9, 2020-08-18 08:47:31.890
15.0, 4571.17724609375, 15359.1796875, 28889.16015625, 8562.9306640625, 6792.89599609375, 17587.759765625, 3825.79150390625, 0.0, 0.12600000202655792, -0.05400000140070915, 0.9940000176429749, 192.0, 0.0, 0.0, 0.0, 0.0, 0.0, 0.0, 0.0, 0.0, 0.0, 1.5977656518901813E9, 2020-08-18 08:47:31.890
16.0, 4571.6689453125, 15358.84375, 28881.716796875, 8544.244140625, 6785.14013671875, 17578.751953125, 3815.152099609375, 0.0, 0.12800000607967377, -0.052000001072883606, 0.9920000433921814, 192.0, 4.0, 0.0, 254.0, 96.0, 31.0, 0.0, 0.0, 0.0, 0.0, 1.5977656518901908E9, 2020-08-18 08:47:31.890
17.0, 4570.7080078125, 15354.865234375, 28877.6484375, 8542.478515625, 6780.6025390625, 17569.453125, 3812.1123046875, 0.0, 0.12800000607967377, -0.052000001072883606, 0.9920000433921814, 192.0, 0.0, 0.0, 0.0, 0.0, 0.0, 0.0, 0.0, 0.0, 0.0, 1.5977656518902051E9, 2020-08-18 08:47:31.890
18.0, 4567.46728515625, 15353.0546875, 28885.203125, 8554.99609375, 6786.615234375, 17573.142578125, 3814.347412109375, 0.0, 0.12800000607967377, -0.052000001072883606, 0.9920000433921814, 192.0, 0.0, 0.0, 0.0, 0.0, 0.0, 0.0, 0.0, 0.0, 0.0, 1.5977656518902147E9, 2020-08-18 08:47:31.890
19.0, 4574.2841796875, 15360.6103515625, 28895.171875, 8568.7197265625, 6794.9970703125, 17585.591796875, 3820.650634765625, 0.0, 0.12800000607967377, -0.052000001072883606, 0.9920000433921814, 192.0, 0.0, 0.0, 0.0, 0.0, 0.0, 0.0, 0.0, 0.0, 0.0, 1.597765651890224E9, 2020-08-18 08:47:31.890
20.0, 4574.3291015625, 15360.69921875, 28883.1015625, 8548.0888671875, 6784.26806640625, 17578.662109375, 3815.39794921875, 0.0, 0.12800000607967377, -0.052000001072883606, 0.9920000433921814, 192.0, 0.0, 0.0, 0.0, 0.0, 0.0, 0.0, 0.0, 0.0, 0.0, 1.5977656518902335E9, 2020-08-18 08:47:31.890
21.0, 4567.17626953125, 15356.6318359375, 28871.859375, 8529.291015625, 6777.74169921875, 17568.939453125, 3808.938232421875, 0.0, 0.12800000607967377, -0.052000001072883606, 0.9920000433921814, 192.0, 0.0, 0.0, 0.0, 0.0, 0.0, 0.0, 0.0, 0.0, 0.0, 1.5977656518902428E9, 2020-08-18 08:47:31.890
22.0, 4564.13671875, 15353.435546875, 28876.173828125, 8543.373046875, 6783.0615234375, 17572.248046875, 3813.18505859375, 0.0, 0.12800000607967377, -0.052000001072883606, 0.9920000433921814, 192.0, 0.0, 0.0, 0.0, 0.0, 0.0, 0.0, 0.0, 0.0, 0.0, 1.597765651890252E9, 2020-08-18 08:47:31.890
23.0, 4569.322265625, 15353.9267578125, 28885.650390625, 8555.5322265625, 6787.30810546875, 17578.796875, 3815.6884765625, 0.0, 0.12800000607967377, -0.052000001072883606, 0.9920000433921814, 192.0, 0.0, 0.0, 0.0, 0.0, 0.0, 0.0, 0.0, 0.0, 0.0, 1.5977656518902614E9, 2020-08-18 08:47:31.890
24.0, 4569.59033203125, 15353.2119140625, 28881.783203125, 8542.7919921875, 6783.1953125, 17572.337890625, 3809.318359375, 0.0, 0.12800000607967377, -0.052000001072883606, 0.9920000433921814, 192.0, 0.0, 0.0, 0.0, 0.0, 0.0, 0.0, 0.0, 0.0, 0.0, 1.5977656518902707E9, 2020-08-18 08:47:31.890
25.0, 4564.60595703125, 15348.2275390625, 28870.919921875, 8533.962890625, 6773.31591796875, 17560.22265625, 3801.651611328125, 0.0, 0.12400000542402267, -0.052000001072883606, 0.9920000433921814, 192.0, 3.0, 224.0, 254.0, 96.0, 31.0, 0.0, 0.0, 0.0, 0.0, 1.5977656518902805E9, 2020-08-18 08:47:31.890
26.0, 4564.38232421875, 15351.2666015625, 28880.0390625, 8551.6875, 6777.51806640625, 17567.912109375, 3810.39111328125, 0.0, 0.12400000542402267, -0.052000001072883606, 0.9920000433921814, 192.0, 0.0, 0.0, 0.0, 0.0, 0.0, 0.0, 0.0, 0.0, 0.0, 1.5977656518902895E9, 2020-08-18 08:47:31.890
27.0, 4569.38916015625, 15356.408203125, 28889.47265625, 8563.869140625, 6788.53759765625, 17581.880859375, 3820.98583984375, 0.0, 0.12400000542402267, -0.052000001072883606, 0.9920000433921814, 192.0, 0.0, 0.0, 0.0, 0.0, 0.0, 0.0, 0.0, 0.0, 0.0, 1.597765651890299E9, 2020-08-18 08:47:31.890
28.0, 4573.03271484375, 15356.966796875, 28886.0078125, 8551.3974609375, 6788.2021484375, 17581.009765625, 3818.951904296875, 0.0, 0.12400000542402267, -0.052000001072883606, 0.9920000433921814, 192.0, 0.0, 0.0, 0.0, 0.0, 0.0, 0.0, 0.0, 0.0, 0.0, 1.5977656518903084E9, 2020-08-18 08:47:31.890
29.0, 4565.18701171875, 15350.640625, 28873.669921875, 8533.8291015625, 6777.7861328125, 17567.77734375, 3807.99951171875, 0.0, 0.12400000542402267, -0.052000001072883606, 0.9920000433921814, 192.0, 0.0, 0.0, 0.0, 0.0, 0.0, 0.0, 0.0, 0.0, 0.0, 1.5977656518903177E9, 2020-08-18 08:47:31.890
30.0, 4562.7509765625, 15348.673828125, 28873.84765625, 8539.2822265625, 6778.859375, 17563.865234375, 3807.39599609375, 0.0, 0.12400000542402267, -0.052000001072883606, 0.9920000433921814, 192.0, 0.0, 0.0, 0.0, 0.0, 0.0, 0.0, 0.0, 0.0, 0.0, 1.5977656518903267E9, 2020-08-18 08:47:31.890
31.0, 4564.7626953125, 15346.439453125, 28878.876953125, 8547.4404296875, 6780.71435546875, 17567.44140625, 3807.954833984375, 0.0, 0.12400000542402267, -0.052000001072883606, 0.9920000433921814, 192.0, 0.0, 0.0, 0.0, 0.0, 0.0, 0.0, 0.0, 0.0, 0.0, 1.5977656518903358E9, 2020-08-18 08:47:31.890
32.0, 4570.66357421875, 15352.3173828125, 28882.833984375, 8550.771484375, 6784.73779296875, 17573.87890625, 3811.888671875, 0.0, 0.12400000542402267, -0.052000001072883606, 0.9920000433921814, 192.0, 0.0, 0.0, 0.0, 0.0, 0.0, 0.0, 0.0, 0.0, 0.0, 1.597765651890345E9, 2020-08-18 08:47:31.890
33.0, 4567.77978515625, 15351.982421875, 28873.177734375, 8542.6796875, 6774.9921875, 17563.017578125, 3803.976318359375, 0.0, 0.12400000542402267, -0.052000001072883606, 0.9920000433921814, 192.0, 0.0, 0.0, 0.0, 0.0, 0.0, 0.0, 0.0, 0.0, 0.0, 1.5977656518903544E9, 2020-08-18 08:47:31.890
34.0, 4563.5107421875, 15352.9208984375, 28875.859375, 8542.27734375, 6775.72998046875, 17559.126953125, 3800.332763671875, 0.0, 0.12400000542402267, -0.052000001072883606, 0.9920000433921814, 192.0, 0.0, 0.0, 0.0, 0.0, 0.0, 0.0, 0.0, 0.0, 0.0, 1.597765651890368E9, 2020-08-18 08:47:31.890
